time (s)	strain (mm/mm)	stress (kPa)
-1.5000	0.019962	-0.83789
-1.4600	0.019177	-0.65100
-1.4200	0.019177	0.073199
-1.3800	0.019570	-0.30058
-1.3400	0.019177	-0.46411
-1.3000	0.019962	-0.46411
-1.2600	0.019177	-0.83789
-1.2200	0.019570	0.42362
-1.1800	0.019177	-1.0014
-1.1400	0.019177	0.23673
-1.1000	0.019177	-0.65100
-1.0600	0.019177	-0.11369
-1.0200	0.020376	-0.83789
-0.98000	0.019177	-0.83789
-0.94000	0.019177	-1.5387
-0.90000	0.018764	-0.30058
-0.86000	0.018764	0.42362
-0.82000	0.019177	-1.0014
-0.78000	0.018764	0.42362
-0.74000	0.019570	0.073199
-0.70000	0.018371	0.23673
-0.66000	0.018371	0.23673
-0.62000	0.018371	0.61051
-0.58000	0.017979	0.96093
-0.54000	0.019177	0.23673
-0.50000	0.017979	0.42362
-0.46000	0.018371	0.073199
-0.42000	0.017979	0.23673
-0.38000	0.017565	0.23673
-0.34000	0.018371	0.42362
-0.30000	0.017565	0.23673
-0.26000	0.018371	0.073199
-0.22000	0.018371	-0.30058
-0.18000	0.018371	1.3114
-0.14000	0.017565	-0.83789
-0.10000	0.017173	0.96093
-0.060000	0.017565	-0.65100
-0.020000	0.017173	1.1245
0.020000	0.015561	0.23673
0.060000	0.017173	0.77404
0.10000	0.017565	0.61051
0.14000	0.017173	0.96093
0.18000	0.016759	0.42362
0.22000	0.017173	0.23673
0.26000	0.016367	-0.65100
0.30000	0.016759	-0.65100
0.34000	0.016759	-0.83789
0.38000	0.016759	0.96093
0.42000	0.016367	-0.46411
0.46000	0.016367	0.42362
0.50000	0.017173	-1.0014
0.54000	0.017173	0.61051
0.58000	0.018764	-0.65100
0.62000	0.017173	-0.65100
0.66000	0.017173	-1.0014
0.70000	0.015974	-1.1883
0.74000	0.016367	0.23673
0.78000	0.017173	-0.46411
0.82000	0.017565	-0.46411
0.86000	0.016759	-1.0014
0.90000	0.017979	0.23673
0.94000	0.016759	-0.83789
0.98000	0.018371	-0.83789
1.0200	0.017565	-1.7256
1.0600	0.018371	0.42362
1.1000	0.019177	-1.7256
1.1400	0.019962	0.073199
1.1800	0.019570	-1.0014
1.2200	0.020768	2.1991
1.2600	0.021574	0.42362
1.3000	0.023165	-0.11369
1.3400	0.021574	-0.11369
1.3800	0.022380	0.23673
1.4200	0.022380	-1.0014
1.4600	0.023579	1.1245
1.5000	0.024385	1.4982
1.5400	0.024385	1.6618
1.5800	0.025583	0.23673
1.6200	0.024777	0.96093
1.6600	0.025583	0.42362
1.7000	0.026389	0.42362
1.7400	0.026782	0.42362
1.7800	0.027588	0.073199
1.8200	0.027980	2.0356
1.8600	0.027980	1.8487
1.9000	0.029179	1.3114
1.9400	0.029179	0.61051
1.9800	0.029985	2.3860
2.0200	0.030791	0.073199
2.0600	0.029985	3.2737
2.1000	0.030791	1.6618
2.1400	0.030378	2.1991
2.1800	0.031183	0.77404
2.2200	0.031989	2.0356
2.2600	0.032382	2.9233
2.3000	0.032795	2.7364
2.3400	0.032795	2.7364
2.3800	0.033188	3.2737
2.4200	0.033581	2.9233
2.4600	0.033994	1.8487
2.5000	0.034779	3.9745
2.5400	0.035192	2.3860
2.5800	0.034779	4.6987
2.6200	0.035585	1.6618
2.6600	0.035192	3.8110
2.7000	0.035998	1.6618
2.7400	0.036391	3.2737
2.7800	0.036391	2.0356
2.8200	0.037197	2.5495
2.8600	0.037982	2.0356
2.9000	0.037590	4.6987
2.9400	0.037590	2.1991
2.9800	0.038396	1.8487
3.0200	0.038396	3.2737
3.0600	0.038788	3.4606
3.1000	0.039987	1.6618
3.1400	0.039594	3.2737
3.1800	0.040400	4.8856
3.2200	0.040793	4.1614
3.2600	0.039987	3.9745
3.3000	0.040400	2.5495
3.3400	0.041599	4.8856
3.3800	0.041991	4.1614
3.4200	0.041991	3.8110
3.4600	0.041991	2.9233
3.5000	0.043190	5.2361
3.5400	0.043190	4.1614
3.5800	0.043996	4.5119
3.6200	0.043996	4.6987
3.6600	0.045194	3.2737
3.7000	0.046000	5.0492
3.7400	0.045194	6.1238
3.7800	0.046000	5.9369
3.8200	0.047199	4.3483
3.8600	0.046806	6.3107
3.9000	0.047612	4.8856
3.9400	0.048005	6.1238
3.9800	0.049203	6.6611
4.0200	0.048811	6.4742
4.0600	0.049596	7.1984
4.1000	0.049596	6.1238
4.1400	0.050009	5.4229
4.1800	0.052014	6.8480
4.2200	0.052014	6.3107
4.2600	0.052406	9.1608
4.3000	0.053212	6.3107
4.3400	0.054018	7.3619
4.3800	0.052820	5.5865
4.4200	0.053212	7.1984
4.4600	0.054411	7.3619
4.5000	0.055610	7.0115
4.5400	0.055610	6.6611
4.5800	0.055610	7.8992
4.6200	0.056808	6.4742
4.6600	0.057221	7.5488
4.7000	0.057221	8.0861
4.7400	0.057221	6.1238
4.7800	0.058420	8.4366
4.8200	0.059226	6.6611
4.8600	0.060011	8.0861
4.9000	0.060424	7.8992
4.9400	0.060424	7.1984
4.9800	0.062016	8.4366
5.0200	0.060817	9.3243
5.0600	0.062016	6.8480
5.1000	0.061210	7.7357
5.1400	0.061623	6.8480
5.1800	0.063628	8.6235
5.2200	0.063214	7.1984
5.2600	0.062822	8.7870
5.3000	0.064413	7.5488
5.3400	0.064413	9.3243
5.3800	0.064020	9.8616
5.4200	0.064826	7.7357
5.4600	0.065219	8.0861
5.5000	0.065219	9.5112
5.5400	0.065219	6.8480
5.5800	0.065219	9.8616
5.6200	0.066417	8.2730
5.6600	0.066417	8.7870
5.7000	0.067223	9.1608
5.7400	0.066831	8.2730
5.7800	0.067637	9.5112
5.8200	0.068029	8.6235
5.8600	0.068029	9.3243
5.9000	0.068422	8.4366
5.9400	0.068029	8.9739
5.9800	0.069620	8.7870
6.0200	0.069228	10.399
6.0600	0.069620	8.9739
6.1000	0.070034	11.287
6.1400	0.070426	9.8616
6.1800	0.070426	10.936
6.2200	0.070840	10.749
6.2600	0.071232	9.6981
6.3000	0.071625	11.287
6.3400	0.072431	10.586
6.3800	0.073237	12.011
6.4200	0.072823	11.287
6.4600	0.073237	10.048
6.5000	0.074435	12.899
6.5400	0.074435	11.287
6.5800	0.075241	12.011
6.6200	0.075241	11.474
6.6600	0.076440	11.824
6.7000	0.076027	13.249
6.7400	0.077246	11.824
6.7800	0.079643	11.123
6.8200	0.077246	13.436
6.8600	0.078031	12.361
6.9000	0.078444	12.712
6.9400	0.079230	13.786
6.9800	0.078837	12.712
7.0200	0.078837	14.674
7.0600	0.080036	12.361
7.1000	0.081647	14.861
7.1400	0.082040	11.660
7.1800	0.083239	12.712
7.2200	0.082846	15.024
7.2600	0.082846	12.712
7.3000	0.082846	14.511
7.3400	0.084437	14.324
7.3800	0.083652	13.599
7.4200	0.085656	12.361
7.4600	0.086442	14.324
7.5000	0.087248	13.599
7.5400	0.086442	15.936
7.5800	0.087248	13.786
7.6200	0.087248	16.099
7.6600	0.088054	13.973
7.7000	0.088054	15.024
7.7400	0.089252	15.211
7.7800	0.090451	15.562
7.8200	0.089645	14.324
7.8600	0.090451	13.786
7.9000	0.090451	14.861
7.9400	0.091257	16.099
7.9900	0.090451	14.861
8.0200	0.092063	16.473
8.0600	0.093261	14.674
8.1000	0.092455	16.286
8.1400	0.093261	14.674
8.1800	0.094067	14.674
8.2200	0.094067	15.749
8.2600	0.094067	15.562
8.3000	0.095266	15.398
8.3400	0.094460	15.562
8.3800	0.095266	16.473
8.4200	0.095266	17.524
8.4600	0.095658	16.473
8.5000	0.096464	15.562
8.5400	0.097270	16.823
8.5900	0.097663	16.636
8.6200	0.096857	17.174
8.6600	0.097663	16.636
8.7000	0.097663	18.599
8.7400	0.098055	17.711
8.7800	0.098861	16.099
8.8200	0.099254	16.473
8.8600	0.099667	16.987
8.9000	0.10006	16.099
8.9400	0.099667	18.599
8.9800	0.10006	18.061
9.0200	0.10047	19.486
9.0600	0.10047	18.061
9.1000	0.10167	17.898
9.1400	0.10287	18.599
9.1800	0.10287	17.524
9.2200	0.10326	17.711
9.2600	0.10326	18.786
9.3000	0.10326	19.673
9.3400	0.10368	18.248
9.3800	0.10326	17.711
9.4200	0.10407	19.837
9.4600	0.10566	20.561
9.5000	0.10607	18.599
9.5400	0.10527	19.486
9.5800	0.10607	18.949
9.6200	0.10647	19.837
9.6600	0.10688	19.486
9.7000	0.10688	20.024
9.7400	0.10727	21.636
9.7800	0.10808	20.561
9.8200	0.10847	20.374
9.8600	0.10928	18.599
9.9000	0.10967	20.024
9.9400	0.11048	20.748
9.9800	0.11048	21.986
10.020	0.11008	20.912
10.060	0.11128	22.173
10.100	0.11167	20.748
10.140	0.11209	21.285
10.180	0.11329	19.486
10.220	0.11368	22.173
10.260	0.11368	19.486
10.300	0.11488	21.449
10.340	0.11568	23.061
10.380	0.11488	22.874
10.420	0.11529	21.986
10.460	0.11769	22.337
10.500	0.11688	21.098
10.540	0.11769	23.061
10.580	0.11808	21.449
10.620	0.11889	23.061
10.660	0.11889	23.762
10.700	0.11928	23.411
10.740	0.11969	23.762
10.780	0.12008	22.523
10.820	0.12048	23.598
10.860	0.12170	23.224
10.900	0.12170	22.874
10.940	0.12170	23.762
10.980	0.12248	24.299
11.020	0.12329	24.486
11.060	0.12370	24.836
11.100	0.12370	24.299
11.140	0.12409	24.836
11.180	0.12449	24.486
11.220	0.12449	24.299
11.260	0.12529	25.911
11.300	0.12610	24.486
11.340	0.12610	26.799
11.380	0.12529	24.649
11.420	0.12769	26.261
11.460	0.12730	27.336
11.500	0.12649	25.023
11.540	0.12730	27.149
11.580	0.12849	25.023
11.620	0.12849	26.261
11.660	0.12889	27.336
11.700	0.13011	26.612
11.740	0.12930	26.985
11.780	0.12969	26.261
11.820	0.12969	26.261
11.860	0.13170	28.224
11.900	0.13131	25.724
11.940	0.13131	27.686
11.980	0.13131	26.985
12.020	0.13209	26.985
12.060	0.13290	27.873
12.100	0.13290	26.799
12.140	0.13290	27.149
12.180	0.13331	27.686
12.220	0.13410	26.985
12.260	0.13331	28.037
12.300	0.13410	27.523
12.340	0.13490	27.523
12.380	0.13531	28.037
12.420	0.13531	27.523
12.460	0.13610	29.111
12.500	0.13691	27.873
12.540	0.13730	28.574
12.580	0.13730	28.411
12.620	0.13810	28.948
12.660	0.13810	28.411
12.700	0.13810	28.761
12.740	0.13852	28.574
12.780	0.13891	30.186
12.820	0.14091	30.536
12.860	0.14011	29.462
12.900	0.14091	28.948
12.940	0.14091	28.761
12.980	0.14091	29.999
13.020	0.14131	28.224
13.060	0.14211	30.536
13.100	0.14492	29.836
13.140	0.14412	31.961
13.180	0.14412	29.111
13.220	0.14492	29.836
13.260	0.14492	30.723
13.300	0.14492	30.536
13.340	0.14532	29.999
13.380	0.14612	31.611
13.420	0.14691	31.961
13.460	0.14771	31.961
13.500	0.14771	31.798
13.540	0.14891	31.074
13.580	0.14852	31.961
13.620	0.14933	31.798
13.660	0.15052	31.961
13.700	0.15052	32.686
13.740	0.15092	33.573
13.780	0.15212	31.611
13.820	0.15133	32.499
13.860	0.15172	32.849
13.900	0.15292	35.185
13.940	0.15333	32.148
13.980	0.15333	33.036
14.020	0.15412	31.798
14.060	0.15453	33.924
14.100	0.15612	34.998
14.140	0.15493	33.924
14.180	0.15612	34.998
14.220	0.15573	34.812
14.260	0.15693	34.274
14.300	0.15693	33.573
14.340	0.15693	33.386
14.380	0.15774	34.998
14.420	0.15852	35.349
14.460	0.15933	36.610
14.500	0.15933	35.886
14.540	0.15893	34.998
14.580	0.15933	36.610
14.620	0.15893	35.185
14.660	0.15974	35.536
14.700	0.15974	34.812
14.740	0.16172	36.774
14.780	0.16133	36.610
14.820	0.16172	36.961
14.860	0.16172	36.423
14.900	0.16172	36.423
14.940	0.16214	35.536
14.980	0.16294	37.498
15.020	0.16294	34.648
15.060	0.16334	36.961
15.100	0.16373	37.311
15.140	0.16453	36.961
15.180	0.16495	36.610
15.220	0.16495	36.610
15.260	0.16534	38.386
15.300	0.16573	38.386
15.340	0.16534	37.662
15.380	0.16654	38.035
15.420	0.16693	38.736
15.460	0.16774	38.573
15.500	0.16735	39.087
15.540	0.16774	38.386
15.580	0.16815	40.348
15.620	0.16894	39.087
15.660	0.16854	40.348
15.700	0.16974	38.923
15.740	0.16974	38.923
15.780	0.17055	41.773
15.820	0.17013	39.811
15.860	0.17094	40.699
15.900	0.17175	40.535
15.940	0.17135	40.161
15.980	0.17214	39.087
16.020	0.17214	40.699
16.060	0.17255	38.923
16.100	0.17375	42.311
16.140	0.17375	40.348
16.180	0.17456	41.586
16.220	0.17534	41.586
16.260	0.17615	42.311
16.300	0.17576	39.998
16.340	0.17615	42.661
16.380	0.17815	43.385
16.420	0.17815	41.773
16.460	0.17855	42.661
16.500	0.17896	43.011
16.540	0.17896	42.124
16.580	0.18016	42.848
16.620	0.18016	43.385
16.660	0.18016	42.474
16.700	0.18136	43.899
16.740	0.18096	42.661
16.780	0.18216	43.736
16.820	0.18297	43.198
16.860	0.18456	43.198
16.900	0.18375	43.011
16.940	0.18537	44.974
16.980	0.18456	44.623
17.020	0.18537	44.436
17.060	0.18537	43.736
17.100	0.18617	44.273
17.140	0.18696	43.736
17.180	0.18617	44.273
17.220	0.18776	44.623
17.260	0.18776	45.324
17.300	0.18857	45.861
17.340	0.18896	44.273
17.380	0.18896	45.161
17.420	0.18896	45.698
17.460	0.18977	44.436
17.500	0.19016	46.586
17.540	0.19057	45.511
17.580	0.19097	44.974
17.620	0.19057	46.936
17.660	0.19057	45.161
17.700	0.19216	46.586
17.740	0.19216	46.235
17.780	0.19138	46.586
17.820	0.19216	48.011
17.860	0.19297	48.548
17.900	0.19378	47.473
17.940	0.19297	47.123
17.980	0.19417	46.773
18.020	0.19378	48.198
18.060	0.19417	47.123
18.100	0.19497	48.712
18.140	0.19537	48.361
18.180	0.19537	48.198
18.220	0.19537	48.548
18.260	0.19617	49.085
18.300	0.19778	49.085
18.340	0.19698	49.973
18.380	0.19737	49.436
18.420	0.19778	51.048
18.460	0.19818	49.973
18.500	0.19898	50.323
18.540	0.19818	51.398
18.580	0.19938	50.137
18.620	0.19938	51.935
18.660	0.20018	51.048
18.700	0.19977	51.585
18.740	0.20138	51.748
18.780	0.20138	50.510
18.820	0.20338	52.636
18.860	0.20219	51.398
18.900	0.20177	52.286
18.940	0.20219	52.473
18.980	0.20258	51.211
19.020	0.20338	53.174
19.060	0.20419	51.935
19.100	0.20458	52.099
19.140	0.20419	55.323
19.180	0.20539	52.473
19.220	0.20539	54.949
19.260	0.20620	53.711
19.300	0.20739	52.636
19.340	0.20659	54.248
19.380	0.20899	52.473
19.420	0.20899	53.174
19.460	0.20979	54.599
19.500	0.20940	54.785
19.540	0.20979	54.061
19.580	0.21099	54.061
19.620	0.21138	54.785
19.660	0.21180	53.524
19.700	0.21299	56.024
19.740	0.21219	55.486
19.780	0.21299	55.486
19.820	0.21380	55.323
19.860	0.21459	54.785
19.900	0.21419	55.486
19.940	0.21459	56.024
19.980	0.21580	56.211
20.020	0.21380	57.285
20.060	0.21620	56.024
20.100	0.21659	54.949
20.140	0.21781	56.211
20.180	0.21781	56.397
20.220	0.21859	55.860
20.260	0.21859	56.211
20.300	0.21859	57.822
20.340	0.21901	59.948
20.380	0.22021	56.911
20.420	0.21979	57.986
20.460	0.22060	57.822
20.500	0.22140	56.024
20.540	0.22140	58.710
20.580	0.22140	58.173
20.630	0.22180	58.874
20.660	0.22221	59.948
20.700	0.22300	57.822
20.740	0.22260	59.061
20.780	0.22380	57.986
20.820	0.22341	58.523
20.860	0.22422	60.836
20.900	0.22422	60.299
20.940	0.22422	61.373
20.980	0.22461	60.836
21.020	0.22461	59.948
21.060	0.22541	61.023
21.100	0.22661	60.836
21.140	0.22581	61.724
21.180	0.22620	60.486
21.230	0.22701	59.598
21.260	0.22742	61.560
21.300	0.22742	61.911
21.340	0.22781	61.560
21.380	0.22901	63.523
21.420	0.22820	62.635
21.460	0.22781	61.724
21.500	0.22862	62.798
21.540	0.23062	62.261
21.580	0.23062	61.373
21.620	0.23062	62.448
21.660	0.23062	64.948
21.700	0.23221	64.574
21.740	0.23101	64.060
21.780	0.23221	62.635
21.820	0.23263	64.223
21.860	0.23263	63.873
21.900	0.23263	63.336
21.940	0.23341	64.574
21.980	0.23502	66.373
22.020	0.23422	64.223
22.060	0.23583	63.523
22.100	0.23583	64.410
22.140	0.23661	64.948
22.180	0.23742	65.485
22.220	0.23781	64.948
22.260	0.23823	67.074
22.300	0.23781	66.186
22.340	0.24023	65.835
22.380	0.23903	65.648
22.420	0.23903	66.910
22.460	0.24023	66.536
22.500	0.24062	67.074
22.540	0.24143	67.798
22.580	0.24143	68.685
22.620	0.24302	66.910
22.660	0.24343	68.685
22.700	0.24383	67.447
22.740	0.24424	68.335
22.780	0.24463	68.499
22.820	0.24502	68.872
22.860	0.24463	69.386
22.900	0.24583	69.573
22.940	0.24664	70.111
22.980	0.24703	68.872
23.020	0.24664	70.811
23.060	0.24784	70.811
23.100	0.24823	70.297
23.140	0.24903	70.998
23.180	0.24823	71.722
23.220	0.24943	69.924
23.260	0.24943	71.886
23.300	0.24984	71.349
23.340	0.25065	71.722
23.380	0.25184	72.073
23.420	0.25184	72.073
23.460	0.25184	71.886
23.500	0.25263	71.185
23.540	0.25224	71.349
23.580	0.25344	73.147
23.620	0.25304	72.423
23.660	0.25344	73.311
23.700	0.25424	73.311
23.740	0.25385	72.610
23.780	0.25385	74.573
23.820	0.25463	73.685
23.860	0.25583	74.035
23.900	0.25505	73.848
23.940	0.25544	72.423
23.980	0.25583	74.573
24.020	0.25664	74.035
24.060	0.25705	74.386
24.100	0.25705	75.460
24.140	0.25705	74.923
24.180	0.25784	74.035
24.220	0.25825	74.736
24.260	0.25906	74.736
24.300	0.25784	75.110
24.340	0.25864	76.161
24.380	0.25945	75.624
24.420	0.25984	75.811
24.460	0.25984	76.535
24.500	0.26065	74.923
24.540	0.26104	76.161
24.580	0.26226	76.161
24.620	0.26226	75.110
24.660	0.26104	76.535
24.700	0.26226	76.535
24.740	0.26304	78.497
24.780	0.26304	77.586
24.820	0.26304	76.885
24.860	0.26385	76.348
24.900	0.26466	78.310
24.940	0.26466	76.885
24.980	0.26625	77.960
25.020	0.26546	79.011
25.060	0.26666	79.548
25.100	0.26705	78.848
25.140	0.26705	79.011
25.180	0.26705	79.198
25.220	0.26867	80.086
25.260	0.26906	79.198
25.300	0.26945	80.974
25.340	0.26945	80.623
25.380	0.27026	81.347
25.420	0.26986	80.623
25.460	0.27187	80.436
25.500	0.27146	80.974
25.540	0.27187	80.810
25.580	0.27346	81.511
25.620	0.27346	80.086
25.660	0.27427	82.048
25.700	0.27346	82.048
25.740	0.27387	82.235
25.780	0.27586	82.772
25.820	0.27546	83.123
25.860	0.27586	82.772
25.900	0.27708	84.735
25.940	0.27786	82.399
25.980	0.27786	83.473
26.020	0.27827	85.622
26.060	0.27867	84.011
26.100	0.27827	85.786
26.140	0.27906	84.735
26.180	0.27947	84.898
26.220	0.27987	83.660
26.260	0.28067	84.197
26.300	0.28067	84.361
26.340	0.28148	85.973
26.380	0.28268	86.160
26.420	0.28226	86.861
26.460	0.28307	86.510
26.500	0.28268	86.160
26.540	0.28268	84.361
26.580	0.28388	87.047
26.620	0.28388	86.697
26.660	0.28468	87.047
26.700	0.28468	88.473
26.740	0.28507	87.047
26.780	0.28507	88.122
26.820	0.28549	88.286
26.860	0.28627	86.861
26.900	0.28549	87.211
26.940	0.28669	88.636
26.980	0.28828	88.636
27.020	0.28747	90.248
27.060	0.28869	88.636
27.100	0.28708	88.823
27.140	0.28869	87.748
27.180	0.28828	89.711
27.220	0.28908	90.061
27.260	0.28908	89.711
27.300	0.28989	89.711
27.340	0.29067	89.711
27.380	0.29109	89.898
27.420	0.29028	90.972
27.460	0.29148	91.136
27.500	0.29189	91.323
27.540	0.29148	92.397
27.580	0.29309	90.785
27.620	0.29309	91.673
27.660	0.29348	91.136
27.700	0.29268	93.986
27.740	0.29348	92.748
27.780	0.29388	93.448
27.820	0.29468	93.448
27.860	0.29510	94.360
27.900	0.29588	91.136
27.940	0.29510	93.098
27.980	0.29588	92.023
28.020	0.29669	94.710
28.060	0.29708	93.822
28.100	0.29749	95.598
28.140	0.29789	94.523
28.180	0.29830	95.247
28.220	0.29869	93.822
28.260	0.29908	95.948
28.300	0.30030	95.060
28.340	0.30150	95.247
28.380	0.30109	95.948
28.420	0.30150	95.598
28.460	0.30270	97.373
28.500	0.30270	96.135
28.540	0.30270	95.411
28.580	0.30229	96.135
28.620	0.30429	97.023
28.660	0.30549	95.785
28.700	0.30429	97.560
28.740	0.30549	98.097
28.780	0.30630	97.210
28.820	0.30671	98.097
28.860	0.30710	98.798
28.900	0.30750	97.560
28.940	0.30750	97.373
28.980	0.30830	98.448
29.020	0.30911	98.635
29.060	0.30950	97.023
29.100	0.30991	99.336
29.140	0.30991	99.686
29.180	0.31070	100.22
29.220	0.31190	99.686
29.260	0.31150	98.985
29.300	0.31190	99.686
29.340	0.31270	100.06
29.380	0.31270	99.686
29.420	0.31390	100.22
29.460	0.31390	102.02
29.500	0.31431	100.60
29.540	0.31431	100.41
29.580	0.31551	101.48
29.620	0.31551	102.02
29.660	0.31551	100.76
29.700	0.31551	102.72
29.740	0.31591	102.37
29.780	0.31671	103.80
29.820	0.31632	103.80
29.860	0.31710	102.19
29.900	0.31710	102.56
29.940	0.31791	104.15
29.980	0.31752	102.91
30.020	0.31872	103.98
30.060	0.31911	105.04
30.100	0.31952	103.80
30.140	0.31991	106.11
30.180	0.31872	103.98
30.220	0.32072	105.04
30.260	0.32072	105.76
30.300	0.32111	104.33
30.340	0.32072	107.89
30.380	0.32111	106.65
30.420	0.32192	106.65
30.460	0.32273	107.00
30.500	0.32192	106.83
30.540	0.32312	107.18
30.580	0.32312	107.72
30.620	0.32351	107.18
30.660	0.32392	108.07
30.700	0.32473	105.92
30.740	0.32432	108.80
30.780	0.32512	108.07
30.820	0.32552	108.07
30.860	0.32673	108.96
30.900	0.32632	109.50
30.940	0.32673	109.31
30.980	0.32673	107.00
31.020	0.32632	104.50
31.060	0.32673	104.69
31.100	0.32632	103.45
31.140	0.32673	102.37
31.180	0.32673	101.30
31.220	0.32713	100.41
31.260	0.32752	100.06
31.300	0.32673	98.097
31.340	0.32673	97.373
31.380	0.32752	97.210
31.420	0.32752	95.785
31.460	0.32833	95.785
31.500	0.32713	95.598
31.540	0.32673	93.822
31.580	0.32752	93.285
31.620	0.32793	93.285
31.660	0.32752	91.860
31.700	0.32793	91.673
31.740	0.32833	91.323
31.780	0.32793	90.248
31.820	0.32793	89.360
31.860	0.32913	89.010
31.900	0.32833	89.360
31.940	0.32994	89.010
31.980	0.32872	87.585
32.020	0.32833	86.697
32.060	0.32713	85.973
32.100	0.32872	86.510
32.140	0.32872	85.622
32.180	0.32913	85.786
32.220	0.32872	85.085
32.260	0.32913	86.510
32.300	0.32793	83.824
32.340	0.32913	83.310
32.380	0.32872	82.936
32.420	0.32913	82.772
32.460	0.32952	81.885
32.500	0.32872	82.936
32.540	0.32872	82.585
32.580	0.32872	81.698
32.620	0.32872	80.974
32.660	0.32752	80.273
32.700	0.32833	80.623
32.740	0.32872	80.273
32.780	0.32833	79.735
32.820	0.32872	79.198
32.860	0.32752	78.123
32.900	0.32833	78.848
32.940	0.32833	79.548
32.980	0.32752	78.310
33.020	0.32833	77.072
33.060	0.32872	77.423
33.100	0.32793	76.535
33.140	0.32793	76.535
33.180	0.32713	76.348
33.220	0.32833	75.998
33.270	0.32913	75.998
33.300	0.32833	74.573
33.340	0.32793	76.698
33.380	0.32673	75.811
33.420	0.32752	73.685
33.460	0.32713	74.573
33.500	0.32673	74.386
33.540	0.32673	74.736
33.580	0.32713	74.573
33.620	0.32793	74.035
33.660	0.32673	71.349
33.700	0.32593	73.147
33.740	0.32713	71.536
33.780	0.32713	71.886
33.820	0.32593	72.073
33.870	0.32752	72.423
33.900	0.32632	72.610
33.940	0.32673	71.722
33.980	0.32593	70.648
34.020	0.32632	71.536
34.060	0.32673	70.461
34.100	0.32632	71.536
34.140	0.32713	70.111
34.180	0.32632	71.185
34.220	0.32673	69.573
34.260	0.32673	69.573
34.300	0.32713	69.760
34.340	0.32632	69.924
34.380	0.32752	69.573
34.420	0.32752	68.685
34.460	0.32793	69.386
34.500	0.32673	68.499
34.540	0.32833	67.447
34.580	0.32752	67.260
34.620	0.32833	67.611
34.660	0.32752	68.685
34.700	0.32793	68.148
34.740	0.32833	67.798
34.780	0.32833	67.961
34.820	0.32793	67.260
34.860	0.32752	67.074
34.900	0.32752	66.910
34.940	0.32833	66.723
34.980	0.32872	66.536
35.020	0.32833	66.723
35.060	0.32913	65.298
35.100	0.32913	64.761
35.140	0.32872	64.761
35.180	0.32872	66.022
35.220	0.32872	66.536
35.260	0.32913	64.761
35.300	0.32913	65.485
35.340	0.32994	65.648
35.380	0.32913	64.948
35.420	0.32872	63.686
35.460	0.32952	64.574
35.500	0.32872	64.410
35.540	0.32833	63.873
35.580	0.32952	63.149
35.620	0.32872	63.336
35.660	0.32913	63.336
35.700	0.32872	62.798
35.740	0.32952	63.523
35.780	0.32913	62.098
35.820	0.32833	62.448
35.860	0.32872	61.911
35.900	0.32833	61.023
35.940	0.32872	62.261
35.980	0.32833	61.023
36.020	0.32833	61.210
36.060	0.32752	61.023
36.100	0.32793	61.023
36.140	0.32713	61.724
36.180	0.32793	61.023
36.220	0.32833	59.948
36.260	0.32793	61.560
36.300	0.32713	60.486
36.340	0.32713	61.911
36.380	0.32713	60.673
36.420	0.32673	58.874
36.460	0.32752	60.135
36.500	0.32752	60.299
36.540	0.32713	59.411
36.580	0.32632	59.761
36.620	0.32673	59.411
36.660	0.32673	60.486
36.700	0.32713	58.523
36.740	0.32673	59.948
36.780	0.32673	58.710
36.820	0.32632	57.449
36.860	0.32713	59.761
36.900	0.32632	58.336
36.940	0.32673	59.061
36.980	0.32673	59.948
37.020	0.32632	57.986
37.060	0.32673	57.986
37.100	0.32673	58.336
37.140	0.32673	58.710
37.180	0.32673	57.822
37.220	0.32632	58.173
37.260	0.32673	57.449
37.300	0.32593	58.523
37.340	0.32713	57.986
37.380	0.32713	58.336
37.420	0.32632	57.636
37.460	0.32713	57.822
37.500	0.32632	58.874
37.540	0.32713	56.911
37.580	0.32833	56.748
37.620	0.32673	57.449
37.660	0.32673	56.561
37.700	0.32833	57.636
37.740	0.32673	56.561
37.780	0.32793	57.822
37.820	0.32752	57.285
37.860	0.32793	55.673
37.900	0.32833	54.949
37.940	0.32793	56.211
37.980	0.32833	56.911
38.020	0.32872	56.561
38.060	0.32793	56.397
38.100	0.32833	56.561
38.140	0.32952	54.061
38.180	0.32913	54.435
38.220	0.32913	54.949
38.260	0.32872	55.136
38.300	0.32913	56.024
38.340	0.32872	54.785
38.380	0.32872	55.486
38.420	0.32872	55.673
38.460	0.32872	54.435
38.500	0.32872	54.061
38.540	0.32952	54.435
38.580	0.32872	54.248
38.620	0.32872	54.061
38.660	0.32952	53.360
38.700	0.32872	55.673
38.740	0.32833	54.949
38.780	0.32872	53.010
38.820	0.32833	54.599
38.860	0.32833	53.898
38.900	0.32833	52.473
38.940	0.32872	53.360
38.980	0.32833	53.010
39.020	0.32793	53.898
39.060	0.32793	53.010
39.100	0.32793	54.599
39.140	0.32793	53.711
39.180	0.32833	52.823
39.220	0.32872	51.748
39.260	0.32793	51.935
39.300	0.32752	52.099
39.340	0.32793	52.823
39.380	0.32752	52.473
39.420	0.32673	53.174
39.460	0.32793	52.823
39.500	0.32793	51.935
39.540	0.32713	52.473
39.580	0.32872	50.674
39.620	0.32713	51.935
39.660	0.32713	53.010
39.700	0.32752	52.099
39.740	0.32673	52.473
39.780	0.32713	53.010
39.820	0.32673	49.623
39.860	0.32752	51.585
39.900	0.32632	50.861
39.940	0.32673	51.585
39.980	0.32632	51.935
40.020	0.32713	51.748
40.060	0.32673	50.323
40.100	0.32632	52.473
40.140	0.32673	50.861
40.180	0.32713	51.048
40.220	0.32713	50.510
40.260	0.32673	50.674
40.300	0.32632	50.137
40.340	0.32673	50.510
40.380	0.32673	50.323
40.420	0.32752	49.786
40.460	0.32713	51.048
40.500	0.32593	49.623
40.540	0.32793	49.623
40.580	0.32752	49.786
40.620	0.32752	49.623
40.660	0.32793	49.436
40.700	0.32793	48.898
40.740	0.32872	49.786
40.780	0.32752	48.898
40.820	0.32793	48.898
40.860	0.32752	49.973
40.900	0.32872	49.786
40.940	0.32833	48.712
40.980	0.32793	49.786
41.020	0.32913	48.011
41.060	0.32793	50.137
41.100	0.32872	49.085
41.140	0.32913	48.198
41.180	0.32872	49.436
41.220	0.32752	47.824
41.260	0.32913	48.198
41.300	0.32913	48.548
41.340	0.32913	47.660
41.380	0.32913	49.085
41.420	0.32872	48.898
41.460	0.32994	47.824
41.500	0.32872	49.085
41.540	0.32913	47.286
41.580	0.32872	48.198
41.620	0.32833	47.824
41.660	0.32833	49.085
41.700	0.32833	48.548
41.740	0.32872	47.286
41.780	0.32872	49.249
41.820	0.32793	48.011
41.860	0.32872	47.286
41.900	0.32872	48.898
41.940	0.32833	47.286
41.980	0.32793	48.361
42.020	0.32833	49.085
42.060	0.32833	48.011
42.100	0.32793	47.824
42.140	0.32833	47.123
42.180	0.32752	47.824
42.220	0.32752	48.011
42.260	0.32713	47.473
42.300	0.32793	48.361
42.340	0.32793	48.011
42.380	0.32833	47.286
42.420	0.32673	48.548
42.460	0.32793	47.123
42.500	0.32793	47.824
42.540	0.32752	46.773
42.580	0.32713	46.773
42.620	0.32632	45.698
42.660	0.32793	46.936
42.700	0.32673	47.286
42.740	0.32713	46.399
42.780	0.32673	46.586
42.820	0.32673	46.773
42.860	0.32713	46.936
42.900	0.32673	47.123
42.940	0.32713	46.048
42.980	0.32632	46.936
43.020	0.32673	45.861
43.060	0.32713	46.586
43.100	0.32673	46.399
43.140	0.32632	45.324
43.180	0.32752	46.048
43.220	0.32713	46.773
43.260	0.32673	46.773
43.300	0.32632	44.810
43.340	0.32632	45.161
43.380	0.32673	45.511
43.420	0.32632	45.324
43.460	0.32713	45.324
43.500	0.32913	46.399
43.540	0.32673	45.161
43.580	0.32632	44.623
43.620	0.32713	44.974
43.660	0.32713	43.736
43.700	0.32673	44.273
43.740	0.32713	44.623
43.780	0.32833	45.161
43.820	0.32833	45.698
43.860	0.32833	45.698
43.900	0.32793	43.899
43.940	0.32713	43.899
43.980	0.32752	44.436
44.020	0.32793	44.273
44.060	0.32872	44.436
44.100	0.32793	45.511
44.140	0.32913	44.810
44.180	0.32872	44.273
44.220	0.32872	43.736
44.260	0.32872	44.273
44.300	0.32872	43.549
44.340	0.32872	43.899
44.380	0.32872	44.086
44.420	0.32913	44.273
44.460	0.32913	43.385
44.500	0.32952	44.273
44.540	0.32952	44.086
44.580	0.32872	45.161
44.620	0.32913	43.198
44.660	0.32952	44.974
44.700	0.32632	43.385
44.740	0.32913	43.011
44.780	0.32833	43.549
44.820	0.32913	43.899
44.860	0.32913	43.385
44.900	0.32833	43.899
44.940	0.32913	44.436
44.980	0.32833	43.549
45.020	0.32913	42.124
45.060	0.32833	42.848
45.100	0.32752	42.311
45.140	0.32872	44.273
45.180	0.32793	43.736
45.220	0.32793	44.086
45.260	0.32713	43.736
45.300	0.32872	42.474
45.340	0.32752	41.773
45.380	0.32793	41.960
45.420	0.32752	41.960
45.460	0.32833	43.899
45.500	0.32752	43.011
45.540	0.32752	43.011
45.580	0.32752	42.311
45.620	0.32752	42.474
45.660	0.32752	41.960
45.700	0.32673	42.474
45.740	0.32673	41.773
45.780	0.32713	42.124
45.820	0.32713	42.474
45.860	0.32632	42.124
45.910	0.32793	40.885
45.940	0.32793	43.198
45.980	0.32632	42.474
46.020	0.32673	42.311
46.060	0.32593	42.848
46.100	0.32673	42.311
46.140	0.32632	42.474
46.180	0.32632	43.385
46.220	0.32752	41.773
46.260	0.32673	43.011
46.300	0.32632	43.198
46.340	0.32713	41.773
46.380	0.32673	43.198
46.420	0.32713	41.049
46.460	0.32552	41.586
46.510	0.32632	41.773
46.540	0.32793	42.124
46.580	0.32673	42.848
46.620	0.32793	42.474
46.660	0.32713	43.385
46.700	0.32713	43.549
46.740	0.32793	41.773
46.780	0.32793	42.848
46.820	0.32793	41.236
46.860	0.32872	41.960
46.900	0.32793	41.586
46.940	0.32833	41.586
46.980	0.32793	43.011
47.020	0.32793	40.885
47.060	0.32913	41.586
47.100	0.32913	41.773
47.140	0.32872	41.773
47.180	0.32913	40.885
47.220	0.32872	41.586
47.260	0.32913	41.049
47.300	0.32833	40.699
47.340	0.32872	40.699
47.380	0.32872	40.885
47.420	0.32913	40.699
47.460	0.32833	40.885
47.500	0.32872	41.586
47.540	0.32833	41.049
47.580	0.32913	40.535
47.620	0.32913	39.811
47.660	0.32872	40.885
47.700	0.32872	41.049
47.740	0.32833	39.274
47.780	0.32833	40.535
47.820	0.32913	39.811
47.860	0.32913	39.087
47.900	0.32872	39.274
47.940	0.32872	39.624
47.980	0.32833	39.460
48.020	0.32793	38.923
48.060	0.32793	39.624
48.100	0.32833	39.274
48.140	0.32833	39.460
48.180	0.32793	39.460
48.220	0.32793	38.736
48.260	0.32752	40.535
48.300	0.32752	39.087
48.340	0.32793	39.624
48.380	0.32752	39.274
48.420	0.32793	39.998
48.460	0.32793	39.087
48.500	0.32752	39.811
48.540	0.32632	38.573
48.580	0.32713	39.274
48.620	0.32673	39.811
48.660	0.32752	38.736
48.700	0.32673	40.161
48.740	0.32793	39.624
48.780	0.32673	39.811
48.820	0.32793	39.274
48.860	0.32632	38.573
48.900	0.32632	39.624
48.940	0.32752	39.624
48.980	0.32632	39.811
49.020	0.32673	40.348
49.060	0.32713	39.460
49.100	0.32713	38.923
49.140	0.32673	39.998
49.180	0.32593	38.736
49.220	0.32593	39.460
49.260	0.32673	39.087
49.300	0.32632	39.624
49.340	0.32593	39.460
49.380	0.32713	39.087
49.420	0.32913	39.811
49.460	0.32713	39.274
49.500	0.32713	37.498
49.540	0.32713	38.573
49.580	0.32713	39.460
49.620	0.32752	39.811
49.660	0.32673	39.274
49.700	0.32632	39.087
49.740	0.32793	38.386
49.780	0.32752	37.498
49.820	0.32752	38.573
49.860	0.32713	38.386
49.900	0.32793	38.923
49.940	0.32833	38.573
49.980	0.32752	39.087
50.020	0.32833	38.199
50.060	0.32833	38.386
50.100	0.32913	38.199
50.140	0.32994	39.460
50.180	0.32872	38.386
50.220	0.32952	38.386
50.260	0.32872	37.311
50.300	0.32872	38.035
50.340	0.32913	38.923
50.380	0.32913	38.923
50.420	0.32913	38.386
50.460	0.32872	38.386
50.500	0.32913	37.498
50.540	0.32952	37.148
50.580	0.32872	37.148
50.620	0.32952	37.148
50.660	0.32872	38.386
50.700	0.32872	38.736
50.740	0.32872	38.199
50.780	0.32913	37.662
50.820	0.32872	36.961
50.860	0.32833	36.961
50.900	0.32872	37.311
50.940	0.32913	38.386
50.980	0.32793	38.386
51.020	0.32872	38.923
51.060	0.32793	37.662
51.100	0.32793	37.498
51.140	0.32833	36.961
51.180	0.32872	36.774
51.220	0.32793	37.148
51.260	0.32713	38.199
51.300	0.32752	39.087
51.340	0.32752	38.386
51.380	0.32673	38.035
51.420	0.32752	36.610
51.460	0.32793	36.961
51.500	0.32752	37.148
51.540	0.32793	37.662
51.580	0.32752	37.498
51.620	0.32673	37.848
51.660	0.32713	36.237
51.700	0.32713	37.498
51.740	0.32793	37.148
51.780	0.32713	38.035
51.820	0.32632	36.961
51.860	0.32673	36.073
51.900	0.32673	36.610
51.940	0.32673	37.148
51.980	0.32632	36.237
52.020	0.32673	36.774
52.060	0.32673	37.148
52.100	0.32673	37.498
52.140	0.32632	36.610
52.180	0.32593	35.536
52.220	0.32632	36.774
52.260	0.32632	36.610
52.300	0.32673	35.536
52.340	0.32752	36.610
52.380	0.32632	37.148
52.420	0.32713	36.237
52.460	0.32673	36.423
52.500	0.32752	35.723
52.540	0.32713	35.886
52.580	0.32713	36.774
52.620	0.32673	36.073
52.660	0.32713	38.199
52.700	0.32632	36.423
52.740	0.32793	35.723
52.780	0.32833	36.961
52.820	0.32752	35.886
52.860	0.32752	35.349
52.900	0.32833	36.961
52.940	0.32793	34.998
52.980	0.32713	37.498
53.020	0.32793	36.237
53.060	0.32833	35.349
53.100	0.32833	36.423
53.140	0.32913	36.423
53.180	0.32833	35.886
53.220	0.32913	35.886
53.260	0.32872	35.185
53.300	0.32833	36.423
53.340	0.32913	36.423
53.380	0.32913	35.723
53.420	0.32872	36.610
53.460	0.32872	35.723
53.500	0.32872	36.237
53.540	0.32913	36.774
53.580	0.32872	36.073
53.620	0.32833	36.423
53.660	0.32913	36.423
53.700	0.32872	35.185
53.740	0.32793	37.148
53.780	0.32913	36.423
53.820	0.32833	34.274
53.860	0.32872	36.423
53.900	0.32793	35.185
53.940	0.32913	35.723
53.980	0.32833	37.148
54.020	0.32833	34.648
54.060	0.32793	36.961
54.100	0.32833	35.349
54.140	0.32793	35.536
54.180	0.32713	36.961
54.220	0.32793	34.812
54.260	0.32793	35.723
54.300	0.32833	35.886
54.340	0.32793	35.185
54.380	0.32872	35.185
54.420	0.32752	35.886
54.460	0.32713	35.185
54.500	0.32752	35.349
54.540	0.32793	34.648
54.580	0.32673	34.998
54.620	0.32673	35.185
54.660	0.32713	35.723
54.700	0.32793	34.274
54.740	0.32713	35.185
54.780	0.32673	35.349
54.820	0.32673	35.723
54.860	0.32713	34.998
54.900	0.32713	34.461
54.940	0.32713	35.185
54.980	0.32632	34.998
55.020	0.32632	33.760
55.060	0.32632	35.185
55.100	0.32632	34.111
55.140	0.32632	34.461
55.180	0.32632	33.223
55.220	0.32673	33.760
55.260	0.32593	35.349
55.300	0.32632	32.849
55.340	0.32552	34.274
55.380	0.32632	33.386
55.420	0.32673	31.961
55.460	0.31872	21.449
55.500	0.31150	11.824
55.540	0.30189	8.4366
55.580	0.29510	3.0868
55.620	0.28669	0.96093
55.660	0.27867	0.61051
55.700	0.27065	1.8487
55.740	0.26185	-0.46411
55.780	0.25385	0.77404
55.820	0.24502	-0.83789
55.860	0.23781	-2.7769
55.900	0.22940	-0.46411
55.940	0.22140	-1.5387
55.980	0.21260	-0.30058
56.020	0.20539	1.8487
56.060	0.19657	-0.65100
56.100	0.18977	-0.11369
56.140	0.17935	-0.46411
56.180	0.17175	-3.1507
56.220	0.16373	-0.46411
56.260	0.15573	-1.3518
56.300	0.14771	-1.5387
56.340	0.13891	-2.2629
56.380	0.13089	-1.8892
56.420	0.12248	-1.7256
56.460	0.11448	-0.11369
56.500	0.10607	-0.65100
56.540	0.098469	-0.83789
56.580	0.090058	-1.0014
56.620	0.082040	-0.83789
56.660	0.072431	-2.6134
56.700	0.065219	-0.83789
56.740	0.054018	-1.7256
56.780	0.048397	-0.83789
56.820	0.040793	-0.46411
56.860	0.032795	-1.0014
56.900	0.022380	-2.2629
56.940	0.018371	-3.3142
56.980	0.018371	-2.0760
57.020	0.017979	-2.4265
57.060	0.018764	-1.8892
57.100	0.018764	-1.7256
57.140	0.018764	-1.7256
57.180	0.017173	-1.5387
57.220	0.017565	-1.8892
57.260	0.017979	-2.9638
57.300	0.018371	-1.1883
57.340	0.017173	-2.7769
57.380	0.017565	-1.8892
57.420	0.017173	-1.3518
57.460	0.017565	-1.8892
57.500	0.017173	-1.7256
57.540	0.016759	-2.2629
57.580	0.017173	-2.4265
57.620	0.017565	-0.83789
57.660	0.017173	-1.5387
57.700	0.017173	-2.2629
57.740	0.017565	-2.6134
57.780	0.016367	-1.3518
57.820	0.016367	-1.3518
57.860	0.016367	-1.5387
57.900	0.016759	-1.8892
57.940	0.018371	-1.3518
57.980	0.016367	-1.7256
58.020	0.017565	-1.3518
58.060	0.016759	-2.0760
58.100	0.015561	-0.46411
58.140	0.016367	-1.3518
