time (s)	strain (mm/mm)	NT02-2
-0.50000	-0.22891	-0.86036
-0.30000	-0.23091	-1.0065
-0.10000	-0.22940	-0.52624
0.10000	-0.23091	-0.21300
0.30000	-0.23189	0.58054
0.50000	-0.23240	0.89378
0.70000	-0.23189	0.58054
0.90000	-0.23338	-0.21300
1.1000	-0.23189	-0.066824
1.3000	-0.23091	-1.1736
1.5000	-0.22742	0.10024
1.7000	-0.22444	-1.1736
1.9000	-0.21995	0.58054
2.1000	-0.21846	0.74760
2.3000	-0.21548	-1.6539
2.5000	-0.21299	-0.066824
2.7000	-0.21099	0.58054
2.9000	-0.20853	-0.69330
3.1000	-0.20653	-1.8001
3.3000	-0.20552	-0.21300
3.5000	-0.20255	0.41348
3.7000	-0.20054	-2.2804
3.9000	-0.19708	-1.6539
4.1000	-0.19410	-1.0065
4.3000	-0.19110	-0.38006
4.5000	-0.18812	-0.52624
4.7000	-0.18414	0.26730
4.9000	-0.18116	1.3741
5.1000	-0.17816	0.89378
5.3000	-0.17718	1.2279
5.5000	-0.17569	0.26730
5.7000	-0.17369	0.89378
5.9000	-0.17071	0.26730
6.1000	-0.16923	1.3741
6.3000	-0.16722	-0.38006
6.5000	-0.16373	0.58054
6.7000	-0.16075	-0.066824
6.9000	-0.15729	0.26730
7.1000	-0.15380	0.89378
7.3000	-0.15179	0.89378
7.5000	-0.14882	-0.066824
7.7000	-0.14584	1.0608
7.9000	-0.14384	1.2279
8.1000	-0.14135	-0.21300
8.3000	-0.13888	0.26730
8.5000	-0.13737	1.2279
8.7000	-0.13490	0.41348
8.9000	-0.13339	-0.066824
9.1000	-0.13090	1.2279
9.3000	-0.12792	1.0608
9.5000	-0.12594	-1.0065
9.7000	-0.12145	1.2279
9.9000	-0.11747	0.74760
10.100	-0.11598	-1.4868
10.300	-0.11301	0.26730
10.500	-0.10951	-0.066824
10.700	-0.10654	-0.38006
10.900	-0.10505	-0.38006
11.100	-0.10356	-0.86036
11.300	-0.10107	-0.38006
11.500	-0.099579	-1.9671
11.700	-0.097089	-0.38006
11.900	-0.094599	-0.066824
12.100	-0.091621	0.41348
12.300	-0.089131	-0.066824
12.500	-0.084638	0.41348
12.700	-0.082662	0.10024
12.900	-0.079170	0.26730
13.100	-0.076680	0.26730
13.300	-0.074190	0.10024
13.500	-0.070724	0.26730
13.700	-0.070211	-0.38006
13.900	-0.066745	0.41348
14.100	-0.065744	0.74760
14.300	-0.063254	0.26730
14.500	-0.061252	1.0608
14.700	-0.058787	-0.38006
14.900	-0.054295	0.26730
15.100	-0.052806	1.2279
15.300	-0.049315	-0.52624
15.500	-0.045336	-0.066824
15.700	-0.043359	0.58054
15.900	-0.039868	-0.066824
16.100	-0.037891	0.58054
16.300	-0.035888	1.8544
16.500	-0.034400	1.0608
16.700	-0.031422	2.5017
16.900	-0.029419	2.8150
17.100	-0.027930	2.0214
17.300	-0.024439	0.74760
17.500	-0.022462	1.8544
17.700	-0.018971	1.6873
17.900	-0.015505	2.5017
18.100	-0.011013	0.74760
18.300	-0.010012	1.8544
18.500	-0.0075474	2.1676
18.700	-0.0065462	1.8544
18.900	-0.0015659	2.0214
19.100	-7.7014e-05	1.5411
19.300	0.0034143	2.1676
19.500	0.0039020	1.3741
19.700	0.0059044	2.1676
19.900	0.010371	1.0608
20.100	0.011860	2.5017
20.300	0.013863	2.9612
20.510	0.015839	1.2279
20.700	0.020819	2.5017
20.900	0.023797	2.8150
21.110	0.026287	0.89378
21.300	0.029265	2.6479
21.500	0.031268	2.5017
21.700	0.034246	3.4415
21.900	0.035734	2.0214
22.100	0.037737	3.4415
22.300	0.040227	4.5691
22.500	0.042204	2.3347
22.700	0.043205	2.5017
22.900	0.047672	3.1282
23.100	0.050162	4.5691
23.300	0.052164	5.1956
23.500	0.055655	5.3627
23.700	0.059634	5.9891
23.900	0.061611	6.4694
24.100	0.064589	8.3906
24.300	0.067593	8.5368
24.500	0.068568	8.8709
24.700	0.071572	9.6645
24.900	0.073548	11.252
25.100	0.075037	11.105
25.300	0.076526	13.006
25.500	0.080505	14.760
25.700	0.083509	16.201
25.900	0.084998	17.955
26.100	0.088977	19.229
26.300	0.092468	21.923
26.500	0.094932	23.531
26.700	0.098424	26.078
26.900	0.10043	27.498
27.100	0.10289	31.174
27.300	0.10389	32.761
27.500	0.10589	36.582
27.700	0.10838	40.090
27.900	0.11036	44.873
28.100	0.11385	49.968
28.300	0.11634	52.829
28.500	0.11883	56.985
28.700	0.12181	63.354
28.900	0.12579	67.969
29.100	0.12877	73.879
29.300	0.13126	78.640
29.500	0.13375	85.343
29.700	0.13624	90.919
29.900	0.13922	97.768
30.100	0.14022	107.17
30.300	0.14371	112.91
30.500	0.14468	119.76
30.700	0.14717	129.64
30.900	0.14966	136.65
31.100	0.15167	145.23
31.300	0.15264	142.23
31.500	0.15315	141.10
31.700	0.15565	138.87
31.900	0.15513	137.28
32.100	0.15565	136.17
32.300	0.15464	136.00
32.500	0.15464	134.56
32.700	0.15464	134.56
32.900	0.15464	134.25
33.100	0.15413	133.77
33.300	0.15315	132.02
33.500	0.15215	132.35
33.700	0.15215	130.74
33.900	0.15215	131.54
34.100	0.15413	129.78
34.300	0.15464	129.64
34.500	0.15565	128.36
34.700	0.15613	128.67
34.900	0.15513	127.09
35.100	0.15613	128.19
35.300	0.15513	128.36
35.500	0.15413	127.09
35.700	0.15513	128.36
35.900	0.15315	126.92
36.100	0.15264	125.96
36.300	0.15264	126.75
36.500	0.15264	125.81
36.700	0.15464	125.02
36.900	0.15315	124.54
37.100	0.15513	124.54
37.300	0.15513	124.85
37.500	0.15565	123.89
37.700	0.15513	124.37
37.900	0.15513	124.69
38.100	0.15513	123.41
38.300	0.15413	123.41
38.500	0.15364	123.10
38.700	0.15364	123.58
38.900	0.15315	122.93
39.100	0.15264	121.83
39.300	0.15413	123.10
39.500	0.15364	122.45
39.700	0.15513	122.93
39.900	0.15413	121.51
40.100	0.15565	122.14
40.300	0.15513	122.14
40.500	0.15565	120.55
40.700	0.15413	121.51
40.900	0.15513	120.55
41.100	0.15315	120.24
41.300	0.15315	120.07
41.500	0.15215	119.59
41.700	0.15315	119.59
41.900	0.15215	120.24
42.100	0.15315	120.07
42.300	0.15413	120.86
42.500	0.15464	119.59
42.700	0.15413	119.90
42.900	0.15565	119.44
43.100	0.15613	119.90
43.300	0.15565	119.11
43.500	0.15364	118.15
43.700	0.15513	119.44
43.900	0.15364	118.80
44.100	0.15264	118.96
44.300	0.15413	118.48
44.500	0.15315	118.63
44.700	0.15264	118.96
44.900	0.15315	117.84
45.100	0.15364	118.15
45.300	0.15565	117.52
45.500	0.15464	118.63
45.700	0.15565	117.69
45.900	0.15662	117.84
46.100	0.15565	116.56
46.300	0.15513	116.88
46.500	0.15315	116.73
46.700	0.15464	117.04
46.900	0.15264	117.69
47.100	0.15264	118.15
47.300	0.15364	117.84
47.500	0.15315	117.69
47.700	0.15413	116.88
47.900	0.15464	115.77
48.100	0.15513	116.88
48.300	0.15662	116.08
48.500	0.15513	115.29
48.700	0.15613	115.46
48.900	0.15413	115.60
49.100	0.15464	115.60
49.300	0.15464	115.60
49.500	0.15364	115.94
49.700	0.15364	116.25
49.900	0.15315	116.56
50.100	0.15364	114.01
50.300	0.15315	115.77
50.500	0.15464	114.50
50.700	0.15565	114.98
50.900	0.15513	114.81
51.100	0.15565	114.98
51.300	0.15513	115.46
51.500	0.15613	114.33
51.700	0.15364	115.77
51.900	0.15513	115.29
52.100	0.15364	114.18
52.300	0.11832	25.118
52.500	0.066591	3.7756
52.700	0.014350	-0.69330
52.900	-0.035888	-1.4868
53.100	-0.087128	-0.86036
53.300	-0.13937	-0.86036
53.500	-0.18812	0.10024
53.700	-0.23040	0.41348
53.900	-0.22991	-0.21300
54.100	-0.23091	0.10024
54.300	-0.22991	-0.066824
54.500	-0.23189	1.0608
