time (s)	strain (mm/mm)	stress (kPa)
0.0000	-0.20879	-1.9760
0.040000	-0.20828	-1.0493
0.080000	-0.20725	-1.6811
0.12000	-0.20828	-1.6811
0.16000	-0.20828	-2.6499
0.20000	-0.20725	-2.3129
0.24000	-0.20828	0.25647
0.28000	-0.20828	0.88829
0.32000	-0.20828	-1.6811
0.36000	-0.20828	-0.080498
0.40000	-0.20828	-1.3441
0.44000	-0.20879	-1.0493
0.48000	-0.20775	1.5622
0.52000	-0.20932	-1.0493
0.56000	-0.20775	1.5622
0.60000	-0.20879	0.25647
0.64000	-0.20879	-2.3129
0.68000	-0.20828	-0.080498
0.72000	-0.20879	0.59344
0.76000	-0.20775	-1.6811
0.80000	-0.20879	0.59344
0.84000	-0.20982	0.59344
0.88000	-0.20879	0.59344
0.92000	-0.20879	1.8571
0.96000	-0.20932	0.59344
1.0000	-0.20982	0.88829
1.0400	-0.20982	1.5622
1.0800	-0.20982	-0.37535
1.1200	-0.20982	0.25647
1.1600	-0.21033	1.2253
1.2000	-0.20879	-0.37535
1.2400	-0.21033	3.7947
1.2800	-0.20932	-1.9760
1.3200	-0.20828	3.4577
1.3600	-0.20828	-1.3441
1.4000	-0.20828	0.88829
1.4400	-0.20674	0.88829
1.4800	-0.20621	-0.37535
1.5200	-0.20725	2.8259
1.5600	-0.20571	-0.37535
1.6000	-0.20674	-0.080498
1.6400	-0.20674	2.1940
1.6800	-0.20364	-3.6187
1.7200	-0.20571	2.1940
1.7600	-0.20314	-0.37535
1.8000	-0.20364	-0.080498
1.8400	-0.20210	0.59344
1.8800	-0.20160	1.5622
1.9200	-0.20109	-0.71232
1.9600	-0.20056	0.88829
2.0000	-0.20056	-1.0493
2.0400	-0.20006	1.8571
2.0800	-0.19645	-1.9760
2.1200	-0.19799	-1.0493
2.1600	-0.19852	0.25647
2.2000	-0.19799	-1.9760
2.2400	-0.19595	1.8571
2.2800	-0.19698	-1.6811
2.3200	-0.19542	-1.3441
2.3600	-0.19287	-1.0493
2.4000	-0.19337	1.5622
2.4400	-0.19441	-0.37535
2.4800	-0.19287	-2.6499
2.5200	-0.19183	-0.080498
2.5600	-0.19183	1.8571
2.6000	-0.19080	-2.6499
2.6400	-0.19080	0.88829
2.6800	-0.18926	0.88829
2.7200	-0.18873	2.8259
2.7600	-0.18873	0.88829
2.8000	-0.18719	-2.9447
2.8400	-0.18669	0.88829
2.8800	-0.18669	-2.9447
2.9200	-0.18669	-0.080498
2.9600	-0.18515	-1.0493
3.0000	-0.18411	0.88829
3.0400	-0.18462	0.88829
3.0800	-0.18258	0.59344
3.1200	-0.18361	-2.9447
3.1600	-0.18154	0.25647
3.2000	-0.18207	-3.9135
3.2400	-0.18051	-0.37535
3.2800	-0.18000	1.2253
3.3200	-0.18000	2.1940
3.3600	-0.17950	0.88829
3.4000	-0.17950	-0.71232
3.4400	-0.17846	-0.080498
3.4800	-0.17743	0.59344
3.5200	-0.17743	-1.0493
3.5600	-0.17796	1.2253
3.6000	-0.17692	-0.37535
3.6400	-0.17639	1.5622
3.6800	-0.17539	-1.0493
3.7200	-0.17589	-1.9760
3.7600	-0.17435	3.1628
3.8000	-0.17435	-1.0493
3.8400	-0.17382	0.59344
3.8800	-0.17382	-1.3441
3.9200	-0.17382	0.59344
3.9600	-0.17332	-1.9760
4.0000	-0.17127	0.88829
4.0400	-0.17178	-0.080498
4.0800	-0.17074	2.4889
4.1200	-0.17127	-2.3129
4.1600	-0.17074	3.7947
4.2000	-0.17074	-1.3441
4.2400	-0.16971	-0.37535
4.2800	-0.16971	-1.0493
4.3200	-0.16817	0.59344
4.3600	-0.16817	0.59344
4.4000	-0.16817	0.59344
4.4400	-0.16716	-0.080498
4.4800	-0.16716	-1.6811
4.5200	-0.16716	-0.37535
4.5600	-0.16560	-1.3441
4.6000	-0.16663	-1.6811
4.6400	-0.16509	-0.37535
4.6800	-0.16509	2.8259
4.7200	-0.16355	-1.0493
4.7600	-0.16305	0.88829
4.8000	-0.16355	-0.37535
4.8400	-0.16252	0.88829
4.8800	-0.16252	-1.0493
4.9200	-0.16098	-0.37535
4.9600	-0.16098	2.1940
5.0000	-0.15995	0.88829
5.0400	-0.16048	-0.37535
5.0800	-0.15894	-1.9760
5.1200	-0.15894	-0.71232
5.1600	-0.15790	1.5622
5.2000	-0.15737	-0.080498
5.2400	-0.15687	0.59344
5.2800	-0.15533	-1.3441
5.3200	-0.15533	-1.0493
5.3600	-0.15480	2.4889
5.4000	-0.15379	-1.3441
5.4400	-0.15480	0.88829
5.4800	-0.15172	1.8571
5.5200	-0.15225	1.5622
5.5600	-0.15018	2.4889
5.6000	-0.15122	0.59344
5.6400	-0.15225	-3.2817
5.6800	-0.14864	1.5622
5.7200	-0.14915	0.25647
5.7600	-0.14864	3.1628
5.8000	-0.14814	0.59344
5.8400	-0.14761	1.5622
5.8800	-0.14711	-1.3441
5.9200	-0.14658	-1.6811
5.9600	-0.14557	-1.6811
6.0000	-0.14504	0.59344
6.0400	-0.14403	0.59344
6.0800	-0.14350	0.25647
6.1200	-0.14299	-1.3441
6.1600	-0.14246	2.1940
6.2000	-0.14145	2.1940
6.2400	-0.14145	-1.0493
6.2800	-0.14145	2.4889
6.3200	-0.13939	0.25647
6.3600	-0.13888	0.25647
6.4000	-0.13888	0.25647
6.4400	-0.13939	-0.37535
6.4800	-0.14092	-2.3129
6.5200	-0.13835	3.1628
6.5600	-0.13681	-2.9447
6.6000	-0.13734	-1.0493
6.6400	-0.13734	-1.0493
6.6800	-0.13527	0.88829
6.7200	-0.13631	-0.37535
6.7600	-0.13477	0.25647
6.8000	-0.13424	0.88829
6.8400	-0.13323	-0.37535
6.8800	-0.13424	0.25647
6.9200	-0.13373	-1.0493
6.9600	-0.13323	-2.3129
7.0000	-0.13220	-0.37535
7.0400	-0.13220	-3.9135
7.0800	-0.13066	2.1940
7.1200	-0.13220	-3.2817
7.1600	-0.13066	-0.71232
7.2000	-0.13013	1.2253
7.2400	-0.13013	-1.9760
7.2800	-0.13066	0.25647
7.3200	-0.12859	-2.3129
7.3600	-0.12912	-1.6811
7.4000	-0.12808	-0.080498
7.4400	-0.12705	-1.6811
7.4800	-0.12705	-0.080498
7.5200	-0.12601	-1.3441
7.5600	-0.12705	-2.3129
7.6000	-0.12551	0.25647
7.6400	-0.12551	-1.0493
7.6900	-0.12294	0.59344
7.7200	-0.12448	0.59344
7.7600	-0.12397	-1.9760
7.8000	-0.12344	0.59344
7.8400	-0.12294	-2.6499
7.8800	-0.12140	2.4889
7.9200	-0.12243	-0.37535
7.9600	-0.12140	1.2253
8.0000	-0.12036	0.25647
8.0400	-0.11933	-0.71232
8.0800	-0.11933	1.5622
8.1200	-0.11883	1.5622
8.1600	-0.11832	1.2253
8.2000	-0.11779	3.4577
8.2400	-0.11779	-0.080498
8.2900	-0.11625	-1.9760
8.3200	-0.11575	1.5622
8.3600	-0.11471	0.59344
8.4000	-0.11471	2.4889
8.4400	-0.11421	0.25647
8.4800	-0.11317	1.5622
8.5200	-0.11164	0.59344
8.5600	-0.11164	1.2253
8.6000	-0.11164	0.88829
8.6400	-0.11010	-1.3441
8.6800	-0.10853	0.88829
8.7200	-0.10906	2.4889
8.7600	-0.10803	0.88829
8.8000	-0.10699	1.5622
8.8400	-0.10803	2.4889
8.8800	-0.10699	1.5622
8.9200	-0.10599	2.1940
8.9600	-0.10442	-0.71232
9.0000	-0.10442	0.59344
9.0400	-0.10442	0.88829
9.0800	-0.10442	-1.0493
9.1200	-0.10288	2.8259
9.1600	-0.10238	1.5622
9.2000	-0.10185	-0.080498
9.2400	-0.10238	-1.6811
9.2800	-0.10084	2.1940
9.3200	-0.10134	-0.37535
9.3600	-0.099300	-1.3441
9.4000	-0.099804	0.88829
9.4400	-0.099300	0.59344
9.4800	-0.097734	0.25647
9.5200	-0.098265	0.59344
9.5600	-0.097734	0.25647
9.6000	-0.098769	4.1316
9.6400	-0.096196	0.59344
9.6800	-0.096196	-0.71232
9.7200	-0.095692	1.2253
9.7600	-0.094657	-1.3441
9.8000	-0.094657	0.25647
9.8400	-0.095692	0.59344
9.8800	-0.095188	1.5622
9.9200	-0.095188	1.8571
9.9600	-0.093622	-1.0493
10.000	-0.092084	-1.6811
10.040	-0.093118	-0.080498
10.080	-0.092614	-1.0493
10.120	-0.092614	-0.37535
10.160	-0.092084	-0.080498
10.200	-0.091076	2.4889
10.240	-0.091076	-0.080498
10.280	-0.090041	-1.9760
10.320	-0.089006	0.59344
10.360	-0.089006	-1.0493
10.400	-0.087972	-2.6499
10.440	-0.089006	-0.37535
10.480	-0.086937	1.2253
10.520	-0.087972	3.4577
10.560	-0.086937	-0.71232
10.600	-0.086433	-1.6811
10.640	-0.086937	0.59344
10.680	-0.083860	0.25647
10.720	-0.084894	-1.0493
10.760	-0.084390	-0.71232
10.800	-0.083355	2.4889
10.840	-0.082825	2.4889
10.880	-0.082321	-0.71232
10.920	-0.082321	1.2253
10.960	-0.081286	1.5622
11.000	-0.080782	-1.0493
11.040	-0.080782	0.25647
11.080	-0.078209	0.25647
11.120	-0.079243	2.8259
11.160	-0.078209	-1.3441
11.200	-0.077705	-0.37535
11.240	-0.077705	3.1628
11.280	-0.076166	-0.37535
11.320	-0.075635	1.8571
11.360	-0.073593	-0.71232
11.400	-0.075131	-0.71232
11.440	-0.073062	1.5622
11.480	-0.072558	-1.3441
11.520	-0.072558	1.2253
11.560	-0.071019	2.4889
11.600	-0.071523	0.59344
11.640	-0.070489	-0.37535
11.680	-0.068950	-1.6811
11.720	-0.067915	1.8571
11.760	-0.067411	-1.0493
11.800	-0.066907	-0.71232
11.840	-0.067411	1.8571
11.880	-0.066907	1.8571
11.920	-0.065368	0.88829
11.960	-0.065368	-2.3129
12.000	-0.062795	0.59344
12.040	-0.064334	1.2253
12.080	-0.063803	-1.6811
12.120	-0.062265	0.25647
12.160	-0.062265	2.8259
12.200	-0.061760	-0.71232
12.240	-0.060726	-0.080498
12.280	-0.060222	0.59344
12.320	-0.061760	0.25647
12.360	-0.060222	0.88829
12.400	-0.059187	-2.3129
12.440	-0.058683	3.4577
12.480	-0.058152	-0.37535
12.520	-0.058683	-1.6811
12.560	-0.057144	0.59344
12.600	-0.057648	-0.37535
12.640	-0.056614	2.1940
12.680	-0.056110	-0.080498
12.720	-0.056110	1.2253
12.760	-0.056110	2.4889
12.800	-0.054571	-1.3441
12.840	-0.054040	1.8571
12.880	-0.054571	0.88829
12.920	-0.053536	1.5622
12.960	-0.053032	3.1628
13.000	-0.051998	1.5622
13.040	-0.053536	1.2253
13.080	-0.052502	1.5622
13.120	-0.050963	1.5622
13.160	-0.049928	2.8259
13.200	-0.050459	0.88829
13.240	-0.050963	2.8259
13.280	-0.049424	2.4889
13.320	-0.049928	0.88829
13.360	-0.047886	2.4889
13.400	-0.048390	-0.37535
13.440	-0.047886	0.88829
13.480	-0.046851	-0.080498
13.520	-0.047355	0.88829
13.560	-0.046347	1.8571
13.600	-0.046851	-0.080498
13.640	-0.045816	1.8571
13.680	-0.044782	1.8571
13.720	-0.044278	-0.080498
13.760	-0.044278	2.1940
13.800	-0.043243	-0.71232
13.840	-0.043774	0.25647
13.880	-0.042235	-0.080498
13.920	-0.041704	0.25647
13.960	-0.041704	1.5622
14.000	-0.040166	-0.37535
14.040	-0.040166	-0.37535
14.080	-0.040166	1.5622
14.120	-0.038123	-1.0493
14.160	-0.037592	0.88829
14.200	-0.038123	-0.71232
14.240	-0.037592	-0.37535
14.280	-0.036053	0.59344
14.320	-0.035019	2.4889
14.360	-0.036053	0.88829
14.400	-0.034515	-0.080498
14.440	-0.032976	-1.3441
14.480	-0.032445	2.1940
14.520	-0.032445	-2.3129
14.560	-0.031941	0.88829
14.600	-0.030907	2.8259
14.640	-0.031437	1.8571
14.680	-0.029872	1.2253
14.720	-0.028864	0.25647
14.760	-0.029368	-1.0493
14.800	-0.027829	0.25647
14.840	-0.027325	-2.6499
14.880	-0.026291	2.4889
14.920	-0.025760	3.1628
14.960	-0.025256	2.4889
15.000	-0.024221	1.5622
15.040	-0.024221	-0.71232
15.080	-0.023717	1.5622
15.120	-0.023717	-0.080498
15.160	-0.021648	-0.080498
15.200	-0.022683	-0.080498
15.240	-0.021648	1.5622
15.280	-0.021648	-0.37535
15.320	-0.020640	0.59344
15.360	-0.020640	2.4889
15.400	-0.019605	2.1940
15.440	-0.019605	-0.71232
15.480	-0.019605	2.8259
15.520	-0.018571	-2.3129
15.560	-0.018067	1.5622
15.600	-0.018067	1.8571
15.640	-0.017536	0.88829
15.680	-0.017032	0.59344
15.720	-0.016528	2.4889
15.760	-0.015997	0.88829
15.800	-0.016528	-3.2817
15.840	-0.015493	2.4889
15.880	-0.014963	-0.71232
15.920	-0.014459	2.1940
15.960	-0.014459	1.2253
16.000	-0.013424	3.4577
16.040	-0.012416	1.2253
16.080	-0.012416	3.1628
16.120	-0.011885	-1.3441
16.160	-0.011885	2.4889
16.200	-0.011381	-1.9760
16.240	-0.010346	0.25647
16.280	-0.0098424	0.88829
16.320	-0.0098424	3.1628
16.360	-0.0088078	1.5622
16.400	-0.0098424	-0.71232
16.440	-0.0088078	-0.080498
16.480	-0.0083037	2.8259
16.520	-0.0072691	0.88829
16.560	-0.0067385	0.59344
16.600	-0.0051998	3.7947
16.640	-0.0062344	-0.080498
16.680	-0.0041916	1.2253
16.720	-0.0046957	1.8571
16.760	-0.0031570	1.2253
16.800	-0.0031570	0.88829
16.840	-0.0031570	1.8571
16.880	-0.0026264	0.25647
16.920	-0.0021224	2.1940
16.960	-0.0021224	-0.71232
17.000	-0.0010877	2.4889
17.040	-7.9588e-05	0.88829
17.080	0.00095506	3.1628
17.120	0.0019897	0.88829
17.160	0.0019897	2.4889
17.200	0.0019897	1.2253
17.240	0.0035284	0.59344
17.280	0.0035284	7.3328
17.320	0.0050671	0.88829
17.360	0.0061018	2.4889
17.400	0.0055977	2.8259
17.440	0.0061018	2.8259
17.480	0.0061018	0.88829
17.520	0.0071364	4.4265
17.560	0.0081711	-0.37535
17.600	0.0097098	3.7947
17.640	0.0097098	1.5622
17.680	0.0097098	3.7947
17.720	0.010718	5.0583
17.760	0.012787	0.59344
17.800	0.012283	2.4889
17.840	0.012787	0.88829
17.880	0.013822	4.1316
17.920	0.014326	2.4889
17.960	0.014326	0.59344
18.000	0.015361	6.9959
18.040	0.015865	-0.37535
18.080	0.014830	4.1316
18.120	0.016395	3.1628
18.160	0.016899	3.1628
18.200	0.016899	4.1316
18.240	0.017934	1.5622
18.280	0.018438	3.4577
18.320	0.019977	1.2253
18.360	0.018969	2.1940
18.400	0.019473	3.4577
18.440	0.021515	5.0583
18.480	0.021011	3.4577
18.520	0.018438	1.5622
18.560	0.020507	0.59344
18.600	0.022046	3.1628
18.640	0.022046	1.5622
18.680	0.022550	2.8259
18.720	0.023081	3.7947
18.760	0.023081	5.3953
18.800	0.024619	4.4265
18.840	0.024089	0.25647
18.880	0.025123	1.8571
18.920	0.025627	3.7947
18.960	0.026662	0.25647
19.000	0.026662	3.4577
19.040	0.026158	6.7010
19.080	0.026662	2.4889
19.120	0.028731	4.1316
19.160	0.028731	1.5622
19.200	0.028201	4.1316
19.240	0.028731	1.2253
19.280	0.029739	2.8259
19.320	0.030270	4.4265
19.360	0.030774	5.3953
19.400	0.030774	4.4265
19.440	0.030774	3.1628
19.480	0.030774	4.4265
19.520	0.031809	3.1628
19.560	0.032843	4.4265
19.600	0.032843	4.7634
19.640	0.033347	4.7634
19.680	0.033852	3.7947
19.720	0.036425	2.1940
19.760	0.035417	3.1628
19.800	0.036425	6.9959
19.840	0.036425	5.3953
19.880	0.036425	5.3953
19.920	0.037460	6.3640
19.960	0.037990	4.7634
20.000	0.037990	7.6277
20.040	0.038998	6.0271
20.080	0.041068	5.3953
20.120	0.041068	6.3640
20.160	0.041068	6.9959
20.200	0.042606	6.0271
20.240	0.043641	8.9334
20.280	0.044145	5.7322
20.330	0.043110	6.0271
20.360	0.044145	9.2704
20.400	0.045684	6.3640
20.440	0.047222	9.5653
20.480	0.047222	6.3640
20.520	0.046718	9.9022
20.560	0.047753	6.3640
20.600	0.048761	6.0271
20.640	0.048761	9.2704
20.680	0.051334	7.9647
20.720	0.050830	9.2704
20.760	0.051334	7.9647
20.800	0.050326	8.9334
20.840	0.051865	10.239
20.880	0.053404	7.3328
20.930	0.053908	7.9647
20.960	0.053908	7.9647
21.000	0.055446	9.2704
21.040	0.053908	10.239
21.080	0.055446	7.3328
21.120	0.055977	9.2704
21.160	0.056481	8.5965
21.200	0.057012	10.239
21.240	0.057516	10.239
21.280	0.059054	8.5965
21.320	0.058550	8.9334
21.360	0.059054	8.9334
21.400	0.059559	9.2704
21.440	0.060593	11.166
21.480	0.060593	9.9022
21.520	0.060593	10.534
21.560	0.063167	10.239
21.600	0.062132	9.2704
21.640	0.062662	11.503
21.680	0.063167	9.5653
21.720	0.063671	11.840
21.760	0.063671	12.809
21.800	0.064201	14.072
21.840	0.064705	16.010
21.880	0.065236	11.503
21.920	0.065740	11.840
21.960	0.066244	13.103
22.000	0.066244	10.534
22.040	0.067279	15.378
22.080	0.066775	15.041
22.120	0.067783	15.673
22.160	0.067279	16.642
22.200	0.068817	14.704
22.240	0.069348	15.378
22.280	0.068313	14.409
22.320	0.070356	16.010
22.360	0.070356	18.242
22.400	0.071391	16.642
22.440	0.071391	18.579
22.480	0.071921	17.610
22.520	0.072425	17.273
22.560	0.072929	19.211
22.600	0.072929	17.610
22.640	0.073964	19.211
22.680	0.074999	19.211
22.720	0.075503	20.180
22.760	0.075503	18.242
22.800	0.075503	20.180
22.840	0.076033	20.517
22.880	0.077041	22.749
22.920	0.077572	22.412
22.960	0.079111	23.381
23.000	0.079615	21.486
23.040	0.079615	22.749
23.080	0.080649	22.117
23.120	0.080649	22.117
23.160	0.080649	26.624
23.200	0.081684	26.287
23.240	0.083727	26.919
23.280	0.083223	23.086
23.320	0.084257	25.950
23.360	0.085266	24.055
23.400	0.086300	26.287
23.440	0.085266	29.489
23.480	0.085796	30.163
23.520	0.087335	29.194
23.560	0.089378	31.089
23.600	0.090412	28.857
23.640	0.088874	30.163
23.680	0.089908	32.395
23.720	0.089908	29.489
23.760	0.091951	34.627
23.800	0.091951	33.364
23.840	0.091951	32.732
23.880	0.094020	35.301
23.920	0.093490	35.596
23.960	0.094524	35.933
24.000	0.094524	36.228
24.040	0.095055	37.534
24.080	0.097098	38.840
24.120	0.095559	36.902
24.160	0.097098	39.766
24.200	0.096594	41.072
24.240	0.097098	41.072
24.280	0.098636	40.735
24.320	0.098636	45.242
24.360	0.098636	43.978
24.400	0.10071	43.304
24.440	0.099167	46.548
24.480	0.10018	47.811
24.520	0.10071	48.443
24.560	0.10071	50.381
24.600	0.10224	51.013
24.640	0.10224	51.350
24.680	0.10275	51.981
24.720	0.10171	51.013
24.760	0.10328	53.919
24.800	0.10429	53.582
24.840	0.10429	58.089
24.880	0.10532	54.551
24.920	0.10482	57.457
24.960	0.10636	60.658
25.000	0.10739	58.089
25.040	0.10636	62.596
25.080	0.10790	62.933
25.120	0.10790	62.596
25.160	0.10739	66.471
25.200	0.10943	64.533
25.240	0.10790	65.502
25.280	0.10840	68.703
25.320	0.10996	68.366
25.360	0.10996	70.009
25.400	0.10996	71.273
25.440	0.11097	71.610
25.480	0.11201	74.811
25.520	0.11150	72.579
25.560	0.11251	77.380
25.600	0.11304	76.749
25.640	0.11408	77.043
25.680	0.11355	82.856
25.720	0.11458	79.950
25.760	0.11458	82.182
25.800	0.11508	83.488
25.840	0.11715	84.457
25.880	0.11612	88.964
25.920	0.11715	91.196
25.960	0.11715	88.964
26.000	0.11869	91.828
26.040	0.11819	89.933
26.080	0.12127	94.103
26.120	0.12023	95.703
26.160	0.12177	95.366
26.200	0.12230	98.610
26.240	0.12280	102.78
26.280	0.12280	102.44
26.320	0.12384	103.41
26.360	0.12434	106.95
26.400	0.12538	106.61
26.440	0.12538	107.92
26.480	0.12588	112.43
26.520	0.12795	116.60
26.560	0.12899	117.56
26.600	0.12742	118.83
26.640	0.12999	117.86
26.680	0.12949	121.40
26.720	0.12999	124.30
26.760	0.13103	126.54
26.800	0.13206	128.14
26.840	0.13257	131.04
26.880	0.13310	133.61
26.920	0.13310	133.95
26.960	0.13411	136.18
27.000	0.13464	137.49
27.040	0.13464	141.03
27.080	0.13618	143.89
27.120	0.13668	144.56
27.160	0.13668	147.13
27.200	0.13668	148.73
27.240	0.13721	154.17
27.280	0.13875	157.07
27.320	0.13925	155.14
27.360	0.13976	159.01
27.400	0.13925	163.81
27.440	0.13976	163.81
27.480	0.13976	166.72
27.520	0.14029	171.52
27.560	0.14132	172.49
27.600	0.14233	176.37
27.640	0.14233	176.37
27.680	0.14233	181.17
27.720	0.14183	180.20
27.760	0.14286	184.41
27.800	0.14286	187.61
27.840	0.14390	190.52
27.880	0.14490	194.06
27.920	0.14543	197.26
27.960	0.14543	198.86
28.000	0.14490	200.80
28.040	0.14543	202.73
28.080	0.14697	205.93
28.120	0.14697	206.90
28.160	0.14748	214.61
28.200	0.14955	215.87
28.240	0.14902	219.41
28.280	0.15005	222.32
28.320	0.14902	222.95
28.360	0.14955	228.09
28.400	0.15005	231.63
28.440	0.15005	234.53
28.480	0.15212	235.50
28.520	0.15262	239.67
28.560	0.15212	242.87
28.600	0.15212	247.38
28.640	0.15262	249.61
28.680	0.15366	255.09
28.720	0.15416	257.66
28.760	0.15623	261.20
28.800	0.15623	263.77
28.840	0.15570	266.67
28.880	0.15674	269.87
28.920	0.15724	275.64
28.960	0.15881	279.18
29.000	0.15827	283.69
29.040	0.15881	285.29
29.080	0.15981	286.60
29.120	0.16034	292.37
29.160	0.16085	295.57
29.200	0.16188	302.64
29.240	0.16292	305.21
29.280	0.16342	309.09
29.320	0.16342	311.66
29.360	0.16446	314.86
29.400	0.16446	316.80
29.440	0.16496	320.97
29.480	0.16599	325.14
29.520	0.16753	330.28
29.560	0.16857	334.78
29.600	0.16857	342.83
29.640	0.16857	346.03
29.680	0.17011	348.30
29.720	0.17061	349.90
29.760	0.17114	355.68
29.800	0.17165	360.18
29.840	0.17114	364.98
29.880	0.17318	368.52
29.920	0.17369	373.37
29.960	0.17422	376.57
30.000	0.17422	379.77
30.040	0.17369	385.58
30.080	0.17472	389.75
30.120	0.17626	393.29
30.160	0.17626	397.46
30.200	0.17525	404.20
30.240	0.17730	408.07
30.280	0.17783	410.94
30.320	0.17833	415.78
30.360	0.17833	421.55
30.400	0.17783	423.83
30.440	0.17883	428.63
30.480	0.17987	433.14
30.520	0.17987	439.88
30.560	0.17833	443.41
30.600	0.18090	446.95
30.640	0.18141	451.46
30.680	0.18141	460.14
30.720	0.18244	461.74
30.760	0.18244	466.54
30.800	0.18295	471.68
30.840	0.18348	476.82
30.880	0.18449	481.32
30.920	0.18502	486.17
30.960	0.18502	493.20
31.000	0.18552	497.41
31.040	0.18759	502.21
31.080	0.18655	507.69
31.120	0.18655	513.80
31.160	0.18759	516.66
31.200	0.18706	517.63
31.240	0.18655	515.40
31.280	0.18759	509.92
31.320	0.18706	504.49
31.360	0.18655	499.31
31.400	0.18605	497.71
31.440	0.18706	495.81
31.480	0.18655	495.14
31.520	0.18605	493.20
31.560	0.18706	490.34
31.600	0.18655	489.37
31.640	0.18706	489.03
31.680	0.18706	488.40
31.720	0.18706	488.74
31.760	0.18963	485.20
31.800	0.18655	486.46
31.840	0.18655	485.20
31.880	0.18759	480.35
31.920	0.18706	480.35
31.960	0.18809	478.46
32.000	0.18706	478.46
32.040	0.18706	478.46
32.080	0.18706	477.49
32.120	0.18809	475.55
32.160	0.18913	474.58
32.200	0.18706	470.08
32.240	0.18809	472.35
32.280	0.18809	472.65
32.320	0.18860	471.68
32.360	0.18655	468.81
32.400	0.18913	468.48
32.440	0.18860	468.81
32.480	0.19016	466.54
32.520	0.18963	465.27
32.560	0.18809	465.57
32.600	0.18913	463.97
32.640	0.18913	463.67
32.680	0.19016	462.03
32.720	0.18963	461.74
32.760	0.19016	459.80
32.800	0.18963	459.46
32.840	0.18913	458.20
32.880	0.18913	458.83
32.920	0.18963	459.17
32.970	0.18809	461.40
33.000	0.19016	455.92
33.040	0.19067	455.29
33.080	0.18913	455.00
33.120	0.18913	455.29
33.160	0.18963	453.35
33.200	0.18963	452.43
33.240	0.18963	451.75
33.280	0.19067	452.09
33.320	0.19016	453.06
33.360	0.18706	450.15
33.400	0.18860	451.46
33.440	0.18913	450.78
33.480	0.18963	447.92
33.520	0.18913	448.22
33.570	0.18963	449.18
33.600	0.18913	446.95
33.640	0.18860	447.25
33.680	0.18809	448.22
33.720	0.18963	446.61
33.760	0.18860	446.95
33.800	0.18913	444.05
33.840	0.18860	443.75
33.880	0.18860	444.05
33.920	0.18860	443.41
33.960	0.18759	442.78
34.000	0.18706	442.78
34.040	0.18759	442.11
34.080	0.18655	442.11
34.120	0.18809	440.51
34.160	0.18706	442.78
34.200	0.18706	440.84
34.240	0.18759	441.48
34.280	0.18759	441.18
34.320	0.18706	441.48
34.360	0.18706	439.88
34.400	0.18655	439.88
34.440	0.18655	438.91
34.480	0.18655	436.34
34.520	0.18706	436.97
34.560	0.18655	436.67
34.600	0.18706	437.94
34.640	0.18655	435.71
34.680	0.18655	434.40
34.720	0.18605	436.34
34.760	0.18605	435.71
34.800	0.18605	435.07
34.840	0.18759	435.07
34.880	0.18706	432.50
34.920	0.18759	433.43
34.960	0.18759	432.50
35.000	0.18605	430.57
35.040	0.18706	432.50
35.080	0.18706	432.17
35.120	0.18706	431.54
35.160	0.18809	431.54
35.200	0.18809	430.23
35.240	0.18809	429.26
35.280	0.18860	428.63
35.320	0.18860	428.29
35.360	0.18809	430.57
35.400	0.18860	431.54
35.440	0.18913	428.97
35.480	0.18860	429.93
35.520	0.18913	427.66
35.560	0.18963	426.40
35.600	0.19067	427.03
35.640	0.18963	427.66
35.680	0.18963	428.63
35.720	0.18963	427.66
35.760	0.18913	426.69
35.800	0.18963	426.06
35.840	0.18963	426.06
35.880	0.18963	425.43
35.920	0.18913	425.72
35.960	0.18963	426.40
36.000	0.18963	423.83
36.040	0.18913	424.12
36.080	0.19016	424.12
36.120	0.18963	425.09
36.160	0.18913	426.06
36.200	0.18963	426.06
36.240	0.19016	423.15
36.280	0.19016	424.46
36.320	0.18963	421.26
36.360	0.18963	421.55
36.400	0.19016	422.18
36.440	0.18913	422.86
36.480	0.18809	423.83
36.520	0.18913	422.18
36.560	0.18913	422.86
36.600	0.18963	418.98
36.640	0.18809	421.89
36.680	0.19016	421.55
36.720	0.18809	421.55
36.760	0.18809	420.92
36.800	0.18860	421.26
36.840	0.18809	420.58
36.880	0.18759	420.29
36.920	0.18809	418.98
36.960	0.18759	421.26
37.000	0.18759	421.26
37.040	0.18809	418.65
37.080	0.18759	418.35
37.120	0.18759	417.72
37.160	0.18706	416.75
37.200	0.18655	416.75
37.240	0.18759	415.45
37.280	0.18706	416.75
37.320	0.18706	415.45
37.360	0.18655	415.45
37.400	0.18552	414.81
37.440	0.18759	414.48
37.480	0.18552	415.45
37.520	0.18605	415.15
37.560	0.18706	414.48
37.600	0.18655	413.51
37.640	0.18605	413.84
37.680	0.18655	413.21
37.720	0.18706	412.24
37.760	0.18759	412.24
37.800	0.18605	412.88
37.840	0.18759	415.45
37.880	0.18655	411.91
37.920	0.18759	413.84
37.960	0.18759	413.21
38.000	0.18809	410.64
38.040	0.18759	410.64
38.080	0.18706	411.61
38.120	0.18809	409.97
38.160	0.18809	413.51
38.200	0.18809	409.04
38.240	0.18809	409.67
38.280	0.18809	409.97
38.320	0.18913	408.37
38.360	0.18809	410.64
38.400	0.18809	408.71
38.440	0.18963	409.04
38.480	0.19016	409.34
38.520	0.18809	410.64
38.560	0.18913	409.97
38.600	0.18913	409.34
38.640	0.18913	409.67
38.680	0.18963	409.97
38.720	0.19016	409.67
38.760	0.18963	408.71
38.800	0.18963	408.37
38.840	0.18963	407.40
38.880	0.18963	409.04
38.920	0.19016	409.34
38.960	0.18963	409.34
39.000	0.19016	409.04
39.040	0.18913	406.14
39.080	0.18913	405.80
39.120	0.19016	409.04
39.160	0.18963	409.34
39.200	0.18963	409.97
39.240	0.18913	408.37
39.280	0.19016	407.74
39.320	0.18913	407.11
39.360	0.18809	403.57
39.400	0.18963	403.90
39.440	0.18860	406.77
39.480	0.18913	407.11
39.520	0.18860	405.80
39.560	0.18913	405.17
39.600	0.18963	406.47
39.640	0.18759	405.17
39.680	0.18913	403.23
39.720	0.18809	402.60
39.760	0.18963	403.57
39.800	0.18809	403.57
39.840	0.18809	404.20
39.880	0.18759	403.90
39.920	0.18809	402.60
39.960	0.18809	402.60
40.000	0.18706	403.23
40.040	0.18759	404.54
40.080	0.18860	402.94
40.120	0.18809	402.94
40.160	0.18809	402.60
40.200	0.18759	401.29
40.240	0.18706	403.23
40.280	0.18655	401.00
40.320	0.18759	401.63
40.360	0.18706	402.60
40.400	0.18655	401.00
40.440	0.18655	401.63
40.480	0.18706	401.00
40.520	0.18655	401.00
40.560	0.18706	401.63
40.600	0.18706	401.29
40.640	0.18655	403.57
40.680	0.18706	402.26
40.720	0.18706	399.06
40.760	0.18706	398.43
40.800	0.18706	402.26
40.840	0.18809	401.63
40.880	0.18860	398.43
40.920	0.18706	401.00
40.960	0.18655	400.03
41.000	0.18605	398.72
41.040	0.18706	396.83
41.080	0.18706	397.46
41.120	0.18860	399.69
41.160	0.18809	401.00
41.200	0.18860	401.00
41.240	0.18809	400.03
41.280	0.18913	399.69
41.320	0.18706	397.80
41.360	0.18706	396.83
41.400	0.18860	396.15
41.440	0.18913	397.46
41.480	0.19016	396.83
41.520	0.19016	396.15
41.560	0.18860	395.86
41.600	0.18913	396.49
41.640	0.18913	399.06
41.680	0.19016	398.09
41.720	0.18963	396.83
41.760	0.19016	396.15
41.800	0.19016	395.52
41.840	0.18963	394.89
41.880	0.19016	395.23
41.920	0.19016	395.52
41.960	0.19016	395.52
42.000	0.18913	396.49
42.040	0.18963	395.23
42.080	0.18963	394.55
42.120	0.18913	394.89
42.160	0.18963	393.58
42.200	0.18963	393.29
42.240	0.18963	392.95
42.280	0.19067	396.49
42.320	0.18860	392.95
42.360	0.18913	393.58
42.400	0.18913	393.29
42.440	0.18913	394.26
42.480	0.18913	393.29
42.520	0.18759	391.35
42.560	0.18913	395.23
42.600	0.18809	396.83
42.640	0.18963	394.26
42.680	0.18860	393.29
42.720	0.18759	393.29
42.760	0.18860	393.29
42.800	0.18913	391.01
42.840	0.18809	393.29
42.880	0.18860	392.95
42.920	0.18759	393.58
42.960	0.18809	393.92
43.000	0.18706	392.95
43.040	0.18759	391.69
43.080	0.18706	392.32
43.120	0.18759	393.29
43.160	0.18809	393.58
43.200	0.18706	392.62
43.240	0.18706	393.58
43.280	0.18706	392.32
43.320	0.18605	392.32
43.360	0.18655	390.38
43.400	0.18655	390.38
43.440	0.18706	391.69
43.480	0.18655	392.95
43.520	0.18706	393.29
43.560	0.18605	392.62
43.600	0.18706	390.38
43.640	0.18655	391.69
43.680	0.18809	391.69
43.720	0.18706	389.75
43.760	0.18655	390.72
43.800	0.18913	389.75
43.840	0.18759	391.98
43.880	0.18759	391.69
43.920	0.18605	390.38
43.960	0.18706	391.01
44.000	0.18759	389.41
44.040	0.18759	390.38
44.080	0.18913	389.75
44.120	0.18860	388.45
44.160	0.18860	386.84
44.200	0.18759	388.78
44.240	0.18809	387.81
44.280	0.18913	388.45
44.320	0.18655	389.12
44.360	0.18759	388.45
44.400	0.18759	386.84
44.440	0.18913	387.48
44.480	0.19016	388.15
44.520	0.18809	386.84
44.560	0.18809	385.24
44.600	0.18860	388.15
44.640	0.18913	387.81
44.680	0.18963	386.55
44.720	0.18913	387.18
44.760	0.19016	386.55
44.800	0.18913	387.48
44.840	0.18963	386.55
44.880	0.19067	386.55
44.920	0.18963	385.24
44.960	0.19067	386.55
45.000	0.18860	386.84
45.040	0.18963	388.78
45.080	0.19016	384.61
45.120	0.18963	386.21
45.160	0.18963	385.24
45.200	0.18913	386.21
45.240	0.19067	385.58
45.280	0.18913	387.48
45.320	0.18860	387.18
45.360	0.18913	387.81
45.400	0.18913	386.55
45.440	0.18913	384.91
45.480	0.18860	385.24
45.520	0.18860	383.64
45.560	0.18913	383.94
45.610	0.18963	386.55
45.640	0.18860	386.55
45.680	0.18809	385.88
45.720	0.18860	386.21
45.760	0.18860	384.28
45.800	0.18809	385.88
45.840	0.18809	385.24
45.880	0.18759	384.91
45.920	0.18706	384.91
45.960	0.18706	384.61
46.000	0.18706	385.58
46.040	0.18860	383.01
46.080	0.18860	384.91
46.120	0.18706	384.28
46.160	0.18809	383.01
46.210	0.18759	386.21
46.240	0.18759	384.91
46.280	0.18759	383.64
46.320	0.18809	384.91
46.360	0.18759	384.91
46.400	0.18655	380.44
46.440	0.18655	384.28
46.480	0.18759	383.01
46.520	0.18655	382.34
46.560	0.18706	382.67
46.600	0.18605	383.64
46.640	0.18759	383.01
46.680	0.18706	383.31
46.720	0.18655	384.28
46.760	0.18860	384.28
46.800	0.18655	384.61
46.840	0.18706	381.37
46.880	0.18706	381.07
46.920	0.18759	381.71
46.960	0.18759	382.67
47.000	0.18655	381.71
47.040	0.18759	382.04
47.080	0.18759	382.04
47.120	0.18809	380.74
47.160	0.18809	381.71
47.200	0.18913	382.04
47.240	0.18809	381.37
47.280	0.18860	381.37
47.320	0.18809	379.77
47.360	0.19016	381.07
47.400	0.18860	379.47
47.440	0.19016	382.04
47.480	0.18913	382.04
47.520	0.18913	380.44
47.560	0.18913	381.07
47.600	0.18860	377.87
47.640	0.18913	380.11
47.680	0.19016	381.37
47.720	0.18913	381.37
47.760	0.19016	381.07
47.800	0.18913	380.74
47.840	0.18963	380.74
47.880	0.19067	381.07
47.920	0.18963	379.77
47.960	0.18913	382.34
48.000	0.19016	381.07
48.040	0.18913	379.47
48.080	0.18913	378.50
48.120	0.18963	379.47
48.160	0.18913	379.47
48.200	0.19016	377.87
48.240	0.18913	378.80
48.280	0.19067	379.47
48.320	0.18913	379.77
48.360	0.18860	380.11
48.400	0.18913	381.07
48.440	0.18913	380.11
48.480	0.18913	380.11
48.520	0.18963	376.57
48.560	0.18809	376.90
48.600	0.18913	379.47
48.640	0.18860	378.80
48.680	0.18759	377.54
48.720	0.18759	376.23
48.760	0.18913	378.50
48.800	0.18759	378.17
48.840	0.18809	380.11
48.880	0.18809	377.87
48.920	0.18809	377.87
48.960	0.18809	377.20
49.000	0.18809	378.17
49.040	0.18706	377.20
49.080	0.18759	375.94
49.120	0.18655	375.94
49.160	0.18706	376.57
49.200	0.18706	377.20
49.240	0.18655	377.20
49.280	0.18655	377.20
49.320	0.18706	377.20
49.360	0.18655	375.94
49.400	0.18706	376.23
49.440	0.18655	376.23
49.480	0.18706	376.57
49.520	0.18655	375.94
49.560	0.18706	374.97
49.600	0.18552	377.20
49.640	0.18759	375.30
49.680	0.18759	374.33
49.720	0.18706	374.63
49.760	0.18759	376.90
49.800	0.18809	375.60
49.840	0.18706	377.20
49.880	0.18706	376.90
49.920	0.18706	376.57
49.960	0.18759	374.63
50.000	0.18706	375.60
50.040	0.18963	374.63
50.080	0.18860	375.60
50.120	0.18706	377.54
50.160	0.18706	376.90
50.200	0.18809	376.23
50.240	0.18860	377.20
50.280	0.18759	376.90
50.320	0.18860	375.30
50.360	0.18913	374.63
50.400	0.18913	375.30
50.440	0.18860	375.60
50.480	0.18913	375.60
50.520	0.18860	377.54
50.560	0.19016	376.23
50.600	0.18860	375.94
50.640	0.19067	375.60
50.680	0.18963	374.00
50.720	0.18963	373.66
50.760	0.19016	374.97
50.800	0.18963	375.60
50.840	0.19016	374.00
50.880	0.19067	374.63
50.920	0.18963	374.97
50.960	0.18963	372.40
51.000	0.19016	374.00
51.040	0.18860	373.03
51.080	0.19016	374.33
51.120	0.18963	375.30
51.160	0.18913	375.30
51.200	0.18913	374.33
51.240	0.18913	372.06
51.280	0.18860	371.77
51.320	0.18913	372.40
51.360	0.18963	373.37
51.400	0.18860	374.63
51.440	0.18860	374.63
51.480	0.18913	372.06
51.520	0.18913	373.37
51.560	0.18860	372.69
51.600	0.18809	373.37
51.640	0.18809	374.00
51.680	0.18860	373.66
51.720	0.18809	372.06
51.760	0.18809	371.77
51.800	0.18860	371.43
51.840	0.18706	373.03
51.880	0.18759	374.33
51.920	0.18809	373.66
51.960	0.18759	375.30
52.000	0.18759	372.69
52.040	0.18809	371.77
52.080	0.18759	371.43
52.120	0.18860	371.77
52.160	0.18759	373.66
52.200	0.18655	374.63
52.240	0.18706	374.97
52.280	0.18759	371.09
52.320	0.18655	372.40
52.360	0.18759	372.06
52.400	0.18759	371.43
52.440	0.18605	373.03
52.480	0.18655	373.66
52.520	0.18706	373.66
52.560	0.18706	374.33
52.600	0.18655	369.83
52.640	0.18706	370.80
52.680	0.18706	371.43
52.720	0.18706	371.09
52.760	0.18759	372.06
52.800	0.18759	372.06
52.840	0.18860	370.46
52.880	0.18706	370.46
52.920	0.18706	373.03
52.960	0.18706	371.09
53.000	0.18706	370.46
53.040	0.18759	369.49
53.080	0.18759	370.80
53.120	0.18860	369.83
53.160	0.18860	370.46
53.200	0.18809	369.49
53.240	0.18860	370.12
53.280	0.18809	370.80
53.320	0.18963	371.43
53.360	0.19016	370.12
53.400	0.18963	369.83
53.440	0.19016	369.20
53.480	0.18963	369.49
53.520	0.18963	368.86
53.560	0.18913	369.20
53.600	0.18860	369.20
53.640	0.19067	369.20
53.680	0.18913	369.20
53.720	0.18963	367.55
53.760	0.19016	369.20
53.800	0.19016	368.23
53.840	0.19016	367.89
53.880	0.18963	370.80
53.920	0.18913	367.26
53.960	0.19067	367.55
54.000	0.18913	366.92
54.040	0.18913	368.23
54.080	0.18913	369.20
54.120	0.18963	367.89
54.160	0.18913	369.49
54.200	0.18963	369.20
54.240	0.19016	367.89
54.280	0.18913	367.55
54.320	0.18860	368.52
54.360	0.18963	367.55
54.400	0.18963	369.49
54.440	0.18913	368.52
54.480	0.18913	368.86
54.520	0.18706	368.23
54.560	0.18963	368.86
54.600	0.18809	369.83
54.640	0.18860	368.86
54.680	0.18809	369.83
54.720	0.18759	368.86
54.760	0.18809	370.46
54.800	0.18706	367.89
54.840	0.18759	369.83
54.880	0.18759	369.49
54.920	0.18759	368.86
54.960	0.18809	368.52
55.000	0.18809	370.12
55.040	0.18809	369.49
55.080	0.18759	368.23
55.120	0.18706	369.83
55.160	0.18759	368.23
55.200	0.18759	368.86
55.240	0.18655	367.89
55.280	0.18605	368.52
55.320	0.18706	367.55
55.360	0.18706	367.26
55.400	0.18706	367.55
55.440	0.18706	366.63
55.480	0.18706	366.63
55.520	0.18706	369.20
55.560	0.18706	369.49
55.600	0.18706	367.89
55.640	0.18809	368.52
55.680	0.18706	367.89
55.720	0.18706	365.95
55.760	0.18759	367.26
55.800	0.18605	366.92
55.840	0.18860	366.63
55.880	0.18759	366.29
55.920	0.18809	366.92
55.960	0.18759	364.69
56.000	0.18759	365.32
56.040	0.18809	365.66
56.080	0.18706	365.95
56.120	0.18706	366.63
56.160	0.18809	367.26
56.200	0.18759	364.69
56.240	0.18759	366.29
56.280	0.18809	366.63
56.320	0.18860	366.92
56.360	0.18963	364.98
56.400	0.18759	364.98
56.440	0.18809	367.55
56.480	0.18913	364.35
56.520	0.18913	364.02
56.560	0.18913	365.95
56.600	0.19067	364.69
56.640	0.19067	367.26
56.680	0.18913	364.69
56.720	0.18913	363.72
56.760	0.18913	364.35
56.800	0.18913	364.35
56.840	0.18963	364.02
56.880	0.18963	363.09
56.920	0.18963	363.38
56.960	0.18913	365.32
57.000	0.19016	365.66
57.040	0.18605	366.92
57.080	0.18963	364.98
57.120	0.18963	363.72
57.160	0.18913	363.72
57.200	0.18860	365.32
57.240	0.18913	364.69
57.280	0.18860	364.69
57.320	0.18913	364.69
57.360	0.18963	363.09
57.400	0.18860	363.72
57.440	0.18963	364.02
57.480	0.18963	366.29
57.520	0.18809	363.09
57.560	0.18706	363.09
57.600	0.18913	362.75
57.640	0.19067	364.98
57.680	0.18913	365.32
57.720	0.18809	364.02
57.760	0.18809	363.09
57.800	0.18759	362.75
57.840	0.18809	362.41
57.880	0.18655	363.09
57.920	0.18706	366.92
57.960	0.18759	366.29
58.000	0.18860	364.02
58.040	0.18759	363.38
58.080	0.18706	364.35
58.120	0.18706	361.45
58.160	0.18809	362.41
58.200	0.18759	362.41
58.250	0.18809	362.75
58.280	0.18759	363.38
58.320	0.18655	365.32
58.360	0.18759	365.32
58.400	0.18655	362.41
58.440	0.18706	364.35
58.480	0.18605	363.09
58.520	0.18655	362.75
58.560	0.18655	362.41
58.600	0.18655	364.35
58.640	0.18706	363.09
58.680	0.18655	364.35
58.720	0.18706	363.09
58.760	0.18759	362.75
58.800	0.18809	362.12
58.850	0.18706	363.38
58.880	0.18706	362.75
58.920	0.18655	362.41
58.960	0.19016	361.15
59.000	0.18809	364.98
59.040	0.18809	361.78
59.080	0.18913	363.38
59.120	0.18860	363.09
59.160	0.18809	362.41
59.200	0.18706	360.52
59.240	0.18860	361.15
59.280	0.18809	363.09
59.320	0.18913	363.09
59.360	0.19016	363.72
59.400	0.18963	363.72
59.440	0.18963	363.09
59.480	0.18963	362.75
59.520	0.18860	361.78
59.560	0.18963	361.45
59.600	0.19016	363.38
59.640	0.19067	362.41
59.680	0.18963	361.45
59.720	0.18963	360.81
59.760	0.18963	360.81
59.800	0.18963	361.15
59.840	0.18913	359.85
59.880	0.18963	361.45
59.920	0.19016	363.09
59.960	0.19016	361.45
60.000	0.19016	360.18
60.040	0.19016	360.81
60.080	0.18963	360.52
60.120	0.18913	361.78
60.160	0.19067	361.78
60.200	0.18860	361.45
60.240	0.19016	361.78
60.280	0.18860	360.81
60.320	0.18913	360.81
60.360	0.18913	360.52
60.400	0.18860	361.15
60.440	0.18963	360.81
60.480	0.18759	359.85
60.520	0.18913	359.21
60.560	0.18860	356.98
60.600	0.18860	358.58
60.640	0.18809	360.52
60.680	0.18809	359.21
60.720	0.18860	359.55
60.760	0.18706	360.18
60.800	0.18860	358.88
60.840	0.18860	357.95
60.880	0.18860	357.95
60.920	0.18706	358.88
60.960	0.18706	358.58
61.000	0.18706	359.55
61.040	0.18706	358.88
61.080	0.18706	359.21
61.120	0.18860	358.58
61.160	0.18759	359.85
61.200	0.18759	358.88
61.240	0.18655	359.85
61.280	0.18759	360.18
61.320	0.18759	358.58
61.360	0.18706	359.55
61.400	0.18706	359.55
61.440	0.18706	358.88
61.480	0.18605	358.88
61.520	0.18706	359.85
61.560	0.18706	360.52
61.600	0.18605	360.52
61.640	0.18706	360.18
61.680	0.18759	360.52
61.720	0.18809	358.58
61.760	0.18655	358.58
61.800	0.18706	360.18
61.840	0.18655	360.18
61.880	0.18759	359.85
61.920	0.18809	360.52
61.960	0.18809	358.58
62.000	0.18860	359.21
62.040	0.18860	357.95
62.080	0.18655	359.85
62.120	0.18809	361.78
62.160	0.18809	359.85
62.200	0.18809	359.55
62.240	0.18963	360.52
62.280	0.19016	356.98
62.320	0.18809	358.88
62.360	0.18809	359.85
62.400	0.18860	359.85
62.440	0.18963	359.55
62.480	0.18963	359.21
62.520	0.18860	359.55
62.560	0.18913	359.85
62.600	0.18963	356.98
62.640	0.19016	357.61
62.680	0.18963	356.98
62.720	0.18963	358.58
62.760	0.19067	359.85
62.800	0.19016	358.24
62.840	0.19117	357.95
62.880	0.18913	357.28
62.920	0.19117	357.28
62.960	0.18913	356.64
63.000	0.18963	357.28
63.040	0.19016	356.31
63.080	0.18963	355.34
63.120	0.18963	356.64
63.160	0.18860	356.64
63.200	0.18860	356.31
63.240	0.18913	358.24
63.280	0.18913	357.28
63.320	0.18809	357.61
63.360	0.18963	356.64
63.400	0.18913	353.74
63.440	0.18913	356.01
63.480	0.18809	356.98
63.520	0.18860	357.95
63.560	0.18860	357.28
63.600	0.18860	355.34
63.640	0.18809	356.01
63.680	0.18913	355.68
63.720	0.18860	355.34
63.760	0.18860	358.88
63.800	0.18605	358.24
63.840	0.18655	356.31
63.880	0.18809	356.01
63.920	0.18860	356.31
63.960	0.18706	356.31
64.000	0.18706	355.34
64.040	0.18759	354.71
64.080	0.18655	358.58
64.120	0.18706	356.31
64.160	0.18655	356.64
64.200	0.18706	354.41
64.240	0.18706	354.07
64.280	0.18759	356.98
64.320	0.18759	357.28
64.360	0.18706	356.31
64.400	0.18759	354.71
64.440	0.18605	355.34
64.480	0.18655	355.04
64.520	0.18605	356.64
64.560	0.18759	359.55
64.600	0.18655	358.58
64.640	0.18913	356.01
64.680	0.18809	354.71
64.720	0.18809	354.41
64.760	0.18809	354.41
64.800	0.18706	353.44
64.840	0.18706	359.55
64.880	0.18706	359.21
64.920	0.18809	357.28
64.960	0.18809	353.11
65.000	0.18605	305.89
65.040	0.17679	200.46
65.080	0.16599	131.67
65.120	0.15520	81.887
65.160	0.14390	52.655
65.200	0.13464	35.596
65.240	0.12487	21.780
65.280	0.11304	10.239
65.320	0.10328	6.3640
65.360	0.093490	6.3640
65.400	0.082188	2.4889
65.440	0.071391	-0.080498
65.480	0.061124	2.4889
65.520	0.049796	7.6277
65.560	0.038998	3.1628
65.600	0.029235	-7.7887
65.640	0.017403	3.7947
65.680	0.0071364	-3.9135
65.720	-0.0031570	1.5622
65.760	-0.013424	2.8259
65.800	-0.023717	1.5622
65.840	-0.033984	-0.71232
65.880	-0.045312	2.1940
65.920	-0.055579	-1.9760
65.960	-0.066907	1.2253
66.000	-0.078209	1.2253
66.040	-0.088502	-0.37535
66.080	-0.098265	-0.71232
66.120	-0.10957	-0.37535
66.160	-0.12036	1.8571
66.200	-0.13066	-1.0493
66.240	-0.14196	1.2253
66.280	-0.15276	-0.080498
66.320	-0.16202	2.4889
66.360	-0.17332	0.25647
66.400	-0.18411	-2.6499
66.440	-0.19595	-0.37535
66.480	-0.20521	3.7947
66.520	-0.20932	-1.3441
66.560	-0.21086	1.5622
66.600	-0.20982	1.5622
66.640	-0.20932	0.88829
66.680	-0.21136	2.1940
66.720	-0.20879	-1.6811
66.760	-0.21086	1.2253
66.800	-0.21033	-0.37535
66.840	-0.20932	-1.0493
66.880	-0.21136	0.59344
66.920	-0.21086	1.2253
66.960	-0.21086	-0.080498
67.000	-0.21086	1.2253
67.040	-0.21189	-1.6811
67.080	-0.21239	0.25647
67.120	-0.21136	-1.0493
67.160	-0.21136	0.88829
67.200	-0.21136	2.8259
67.240	-0.21136	-1.3441
67.280	-0.21086	1.2253
67.320	-0.21033	0.88829
67.360	-0.21189	-0.37535
67.400	-0.21239	-1.3441
67.440	-0.21033	-0.71232
67.480	-0.21086	-0.37535
67.520	-0.21086	-1.3441
67.560	-0.21189	0.88829
67.600	-0.21136	-1.9760
67.640	-0.21189	0.88829
67.680	-0.21086	-1.6811
67.720	-0.21086	-0.71232
67.760	-0.21033	-0.37535
67.800	-0.21136	-1.9760
67.840	-0.21086	-0.71232
67.880	-0.20828	-1.6811
67.920	-0.20879	-0.37535
67.960	-0.21033	0.25647
68.000	-0.20982	-1.9760
68.040	-0.20982	-0.080498
68.080	-0.20982	-0.71232
68.120	-0.20932	0.25647
